time,strain,stress,temperature,type,strain_rate,max_strain,title,youngs,poissons
0.0,6e-05,-2.85,850,fatigue,0.001,0.00563,416-22,153000,0.3
0.06,0.00011,4.99,,,,,,,
0.11,0.00016,11.87,,,,,,,
0.17,0.00021,18.77,,,,,,,
0.33,0.00026,26.36,,,,,,,
0.42,0.00031,37.65,,,,,,,
0.46,0.00036,46.01,,,,,,,
0.5,0.00042,53.86,,,,,,,
0.55,0.00047,61.78,,,,,,,
0.6,0.00052,68.98,,,,,,,
0.68,0.00057,76.95,,,,,,,
0.75,0.00062,85.11,,,,,,,
0.76,0.00062,86.45,,,,,,,
0.82,0.00067,94.14,,,,,,,
0.87,0.00072,102.99,,,,,,,
0.91,0.00077,111.83,,,,,,,
0.94,0.00082,120.12,,,,,,,
0.98,0.00087,128.25,,,,,,,
1.01,0.00092,136.14,,,,,,,
1.04,0.00097,143.67,,,,,,,
1.08,0.00102,150.8,,,,,,,
1.11,0.00107,157.42,,,,,,,
1.15,0.00112,164.21,,,,,,,
1.19,0.00117,169.8,,,,,,,
1.22,0.00123,173.74,,,,,,,
1.23,0.00128,174.85,,,,,,,
1.24,0.00133,174.82,,,,,,,
1.25,0.00138,174.83,,,,,,,
1.25,0.00143,175.01,,,,,,,
1.26,0.00149,175.25,,,,,,,
1.28,0.00154,175.42,,,,,,,
1.29,0.00159,175.14,,,,,,,
1.64,0.00164,169.65,,,,,,,
1.69,0.00169,175.49,,,,,,,
1.74,0.00174,180.78,,,,,,,
1.76,0.00181,174.3,,,,,,,
1.76,0.00187,174.68,,,,,,,
1.77,0.00195,174.87,,,,,,,
1.77,0.00205,175.03,,,,,,,
1.77,0.00214,175.24,,,,,,,
1.77,0.00221,175.54,,,,,,,
1.9,0.00216,160.49,,,,,,,
1.95,0.00211,153.28,,,,,,,
2.16,0.00216,158.69,,,,,,,
2.21,0.00221,165.29,,,,,,,
2.26,0.00226,171.9,,,,,,,
2.31,0.00231,178.22,,,,,,,
2.35,0.00237,176.72,,,,,,,
2.36,0.00243,176.97,,,,,,,
2.36,0.0025,177.31,,,,,,,
2.36,0.0026,177.49,,,,,,,
2.36,0.00265,177.55,,,,,,,
2.36,0.00271,177.62,,,,,,,
2.36,0.0028,177.9,,,,,,,
2.37,0.00286,178.16,,,,,,,
2.47,0.00281,166.05,,,,,,,
2.5,0.00276,158.45,,,,,,,
2.54,0.00271,151.17,,,,,,,
2.76,0.00275,158.42,,,,,,,
2.77,0.00276,159.82,,,,,,,
2.82,0.00281,167.48,,,,,,,
2.87,0.00286,174.39,,,,,,,
2.93,0.00291,182.72,,,,,,,
2.95,0.00297,178.03,,,,,,,
2.97,0.00302,181.66,,,,,,,
3.0,0.00307,183.14,,,,,,,
3.0,0.00312,182.57,,,,,,,
3.01,0.00317,182.52,,,,,,,
3.01,0.00322,182.73,,,,,,,
3.03,0.00327,183.06,,,,,,,
3.35,0.00332,186.15,,,,,,,
3.37,0.00338,181.03,,,,,,,
3.37,0.00343,181.47,,,,,,,
3.37,0.0035,181.83,,,,,,,
3.38,0.00356,182.29,,,,,,,
3.41,0.00361,185.43,,,,,,,
3.44,0.00366,185.54,,,,,,,
3.71,0.00371,189.36,,,,,,,
3.73,0.00379,182.36,,,,,,,
3.73,0.00387,182.74,,,,,,,
3.73,0.00393,182.79,,,,,,,
3.73,0.004,182.9,,,,,,,
3.73,0.00407,182.98,,,,,,,
3.73,0.00414,183.03,,,,,,,
3.73,0.00421,183.16,,,,,,,
3.74,0.00427,183.24,,,,,,,
3.74,0.00433,183.36,,,,,,,
3.74,0.00441,183.67,,,,,,,
3.75,0.00436,184.43,,,,,,,
3.76,0.0044,183.98,,,,,,,
3.83,0.00431,166.46,,,,,,,
3.85,0.00425,158.55,,,,,,,
3.88,0.0042,150.91,,,,,,,
3.9,0.00415,143.56,,,,,,,
3.94,0.0041,136.79,,,,,,,
4.15,0.00415,146.68,,,,,,,
4.2,0.0042,154.94,,,,,,,
4.25,0.00425,162.68,,,,,,,
4.3,0.0043,169.59,,,,,,,
4.35,0.00435,176.75,,,,,,,
4.4,0.0044,184.21,,,,,,,
4.46,0.00445,185.58,,,,,,,
4.46,0.00451,184.82,,,,,,,
4.46,0.00457,185.09,,,,,,,
4.46,0.00466,185.21,,,,,,,
4.47,0.00476,185.29,,,,,,,
4.47,0.00485,185.46,,,,,,,
4.47,0.00492,185.65,,,,,,,
4.54,0.00487,172.95,,,,,,,
4.56,0.00482,164.68,,,,,,,
4.58,0.00477,156.89,,,,,,,
4.6,0.00472,149.4,,,,,,,
4.62,0.00467,141.7,,,,,,,
4.64,0.00462,134.46,,,,,,,
4.66,0.00456,127.0,,,,,,,
4.68,0.00451,119.62,,,,,,,
4.71,0.00446,112.56,,,,,,,
4.73,0.00441,105.43,,,,,,,
4.76,0.00436,99.13,,,,,,,
4.77,0.00436,98.52,,,,,,,
4.81,0.00431,90.77,,,,,,,
4.87,0.00426,82.08,,,,,,,
4.93,0.00421,74.82,,,,,,,
4.99,0.00416,67.55,,,,,,,
5.04,0.00411,60.36,,,,,,,
5.1,0.00406,52.98,,,,,,,
5.16,0.00401,45.28,,,,,,,
5.22,0.00396,37.81,,,,,,,
5.29,0.00391,28.61,,,,,,,
5.34,0.00386,21.89,,,,,,,
5.39,0.00381,14.71,,,,,,,
5.44,0.00375,7.83,,,,,,,
5.5,0.0037,0.83,,,,,,,
5.55,0.00365,-6.02,,,,,,,
5.61,0.0036,-12.84,,,,,,,
5.68,0.00355,-19.98,,,,,,,
5.76,0.00354,-21.26,,,,,,,
5.93,0.0035,-30.5,,,,,,,
6.02,0.00345,-39.7,,,,,,,
6.07,0.0034,-48.35,,,,,,,
6.09,0.00335,-56.18,,,,,,,
6.12,0.0033,-63.47,,,,,,,
6.15,0.00325,-71.11,,,,,,,
6.18,0.0032,-78.67,,,,,,,
6.21,0.00315,-85.9,,,,,,,
6.23,0.0031,-92.99,,,,,,,
6.26,0.00305,-100.1,,,,,,,
6.29,0.003,-106.7,,,,,,,
6.32,0.00295,-113.7,,,,,,,
6.35,0.0029,-119.9,,,,,,,
6.39,0.00284,-125.3,,,,,,,
6.42,0.00279,-129.9,,,,,,,
6.45,0.00274,-133.8,,,,,,,
6.48,0.00269,-137.0,,,,,,,
6.51,0.00264,-139.9,,,,,,,
6.54,0.00259,-142.2,,,,,,,
6.6,0.00254,-144.8,,,,,,,
6.69,0.00249,-148.7,,,,,,,
6.75,0.00244,-152.3,,,,,,,
6.76,0.00242,-152.8,,,,,,,
6.78,0.00239,-152.9,,,,,,,
6.79,0.00234,-153.1,,,,,,,
6.81,0.00228,-153.6,,,,,,,
6.83,0.00223,-154.3,,,,,,,
6.99,0.00218,-154.2,,,,,,,
7.08,0.00213,-159.0,,,,,,,
7.14,0.00208,-164.2,,,,,,,
7.17,0.00203,-162.7,,,,,,,
7.17,0.00198,-162.6,,,,,,,
7.18,0.00193,-162.8,,,,,,,
7.19,0.00188,-163.7,,,,,,,
7.21,0.00182,-164.4,,,,,,,
7.23,0.00177,-164.4,,,,,,,
7.49,0.00172,-159.9,,,,,,,
7.56,0.00167,-165.8,,,,,,,
7.61,0.00162,-171.5,,,,,,,
7.63,0.00156,-167.6,,,,,,,
7.63,0.0015,-167.9,,,,,,,
7.63,0.00143,-168.1,,,,,,,
7.63,0.00135,-168.3,,,,,,,
7.63,0.00127,-168.5,,,,,,,
7.64,0.00122,-168.7,,,,,,,
7.76,0.00124,-158.7,,,,,,,
7.81,0.00127,-153.2,,,,,,,
8.02,0.00122,-159.2,,,,,,,
8.07,0.00117,-165.8,,,,,,,
8.12,0.00112,-172.4,,,,,,,
8.17,0.00107,-178.3,,,,,,,
8.18,0.00101,-173.6,,,,,,,
8.18,0.00094,-174.0,,,,,,,
8.19,0.00089,-174.2,,,,,,,
8.19,0.00082,-174.6,,,,,,,
8.45,0.00077,-176.7,,,,,,,
8.51,0.00072,-175.3,,,,,,,
8.51,0.00065,-175.7,,,,,,,
8.52,0.00059,-175.9,,,,,,,
8.52,0.00052,-176.0,,,,,,,
8.52,0.00046,-176.3,,,,,,,
8.52,0.0004,-176.7,,,,,,,
8.76,0.00044,-171.4,,,,,,,
8.92,0.00034,-182.2,,,,,,,
8.96,0.00029,-185.7,,,,,,,
8.97,0.00024,-183.6,,,,,,,
8.97,0.00018,-183.8,,,,,,,
8.97,0.00011,-184.2,,,,,,,
8.98,6e-05,-184.4,,,,,,,
8.98,-1e-05,-184.6,,,,,,,
8.98,-6e-05,-185.1,,,,,,,
9.0,-0.00011,-183.5,,,,,,,
9.0,-0.00017,-183.6,,,,,,,
9.0,-0.00023,-183.7,,,,,,,
9.0,-0.00028,-183.8,,,,,,,
9.1,-0.00023,-165.7,,,,,,,
9.13,-0.00018,-158.2,,,,,,,
9.17,-0.00013,-151.2,,,,,,,
9.23,-8e-05,-144.5,,,,,,,
9.38,-0.00013,-154.3,,,,,,,
9.42,-0.00018,-160.7,,,,,,,
9.46,-0.00023,-167.3,,,,,,,
9.5,-0.00028,-173.4,,,,,,,
9.54,-0.00033,-179.2,,,,,,,
9.59,-0.00038,-185.3,,,,,,,
9.64,-0.00043,-190.9,,,,,,,
9.66,-0.00048,-186.2,,,,,,,
9.67,-0.00054,-186.4,,,,,,,
9.67,-0.00061,-186.7,,,,,,,
9.67,-0.00067,-187.2,,,,,,,
9.76,-0.0007,-188.9,,,,,,,
9.86,-0.00072,-187.8,,,,,,,
9.97,-0.00077,-192.9,,,,,,,
9.99,-0.00083,-187.3,,,,,,,
10.0,-0.00088,-187.6,,,,,,,
10.0,-0.00096,-187.7,,,,,,,
10.0,-0.00105,-187.8,,,,,,,
10.0,-0.00113,-188.0,,,,,,,
10.0,-0.00119,-188.3,,,,,,,
10.14,-0.00114,-174.2,,,,,,,
10.21,-0.00109,-166.9,,,,,,,
10.37,-0.00114,-173.4,,,,,,,
10.42,-0.00119,-180.3,,,,,,,
10.47,-0.00124,-186.9,,,,,,,
10.52,-0.00129,-193.4,,,,,,,
10.55,-0.00134,-188.6,,,,,,,
10.55,-0.00142,-188.8,,,,,,,
10.55,-0.00153,-189.1,,,,,,,
10.55,-0.00159,-189.2,,,,,,,
10.55,-0.00166,-189.4,,,,,,,
10.55,-0.00173,-189.4,,,,,,,
10.55,-0.0018,-189.5,,,,,,,
10.56,-0.00186,-189.7,,,,,,,
10.56,-0.00192,-189.8,,,,,,,
10.56,-0.002,-190.1,,,,,,,
10.57,-0.00195,-191.1,,,,,,,
10.65,-0.0019,-172.7,,,,,,,
10.67,-0.00184,-164.5,,,,,,,
10.7,-0.00179,-156.9,,,,,,,
10.72,-0.00174,-149.8,,,,,,,
10.76,-0.00169,-142.7,,,,,,,
10.76,-0.00169,-142.6,,,,,,,
10.97,-0.00174,-153.4,,,,,,,
11.02,-0.0018,-160.5,,,,,,,
11.06,-0.00185,-167.5,,,,,,,
11.11,-0.0019,-174.1,,,,,,,
11.15,-0.00195,-180.6,,,,,,,
11.2,-0.002,-187.2,,,,,,,
11.25,-0.00205,-192.9,,,,,,,
11.3,-0.0021,-193.2,,,,,,,
11.3,-0.00216,-193.7,,,,,,,
11.3,-0.00223,-193.9,,,,,,,
11.3,-0.00231,-194.1,,,,,,,
11.31,-0.00239,-194.3,,,,,,,
11.31,-0.00245,-194.5,,,,,,,
11.31,-0.0025,-194.8,,,,,,,
11.42,-0.00245,-187.3,,,,,,,
11.5,-0.0024,-178.9,,,,,,,
11.67,-0.00245,-184.8,,,,,,,
11.72,-0.0025,-191.3,,,,,,,
11.76,-0.00255,-196.6,,,,,,,
11.77,-0.00255,-197.1,,,,,,,
11.8,-0.00261,-191.7,,,,,,,
11.81,-0.00266,-192.1,,,,,,,
11.81,-0.00271,-192.3,,,,,,,
11.81,-0.00276,-192.6,,,,,,,
11.81,-0.00283,-193.0,,,,,,,
12.05,-0.00288,-194.9,,,,,,,
12.14,-0.00293,-201.5,,,,,,,
12.15,-0.003,-195.0,,,,,,,
12.15,-0.00307,-195.3,,,,,,,
12.15,-0.00315,-195.4,,,,,,,
12.15,-0.00323,-195.6,,,,,,,
12.15,-0.0033,-195.9,,,,,,,
12.16,-0.00336,-196.1,,,,,,,
12.26,-0.00331,-189.2,,,,,,,
12.35,-0.00326,-180.1,,,,,,,
12.51,-0.00331,-184.6,,,,,,,
12.56,-0.00336,-190.6,,,,,,,
12.61,-0.00341,-196.5,,,,,,,
12.66,-0.00346,-202.6,,,,,,,
12.72,-0.00351,-201.5,,,,,,,
12.76,-0.00356,-202.4,,,,,,,
12.77,-0.00361,-201.8,,,,,,,
12.78,-0.00367,-202.1,,,,,,,
12.79,-0.00373,-202.5,,,,,,,
12.8,-0.00378,-201.3,,,,,,,
12.81,-0.00384,-201.3,,,,,,,
12.81,-0.0039,-201.3,,,,,,,
12.82,-0.00396,-201.5,,,,,,,
12.82,-0.00402,-201.8,,,,,,,
12.95,-0.00397,-186.6,,,,,,,
13.03,-0.00392,-179.1,,,,,,,
13.18,-0.00397,-185.9,,,,,,,
13.23,-0.00402,-192.8,,,,,,,
13.28,-0.00407,-199.6,,,,,,,
13.33,-0.00412,-205.8,,,,,,,
13.42,-0.00418,-200.5,,,,,,,
13.42,-0.00426,-201.2,,,,,,,
13.42,-0.00434,-201.5,,,,,,,
13.42,-0.00443,-201.8,,,,,,,
13.42,-0.0045,-202.2,,,,,,,
13.43,-0.00456,-202.6,,,,,,,
13.45,-0.00461,-204.3,,,,,,,
13.46,-0.00466,-203.7,,,,,,,
13.46,-0.00472,-203.6,,,,,,,
13.47,-0.00477,-203.4,,,,,,,
13.56,-0.00472,-186.7,,,,,,,
13.59,-0.00467,-178.2,,,,,,,
13.63,-0.00462,-169.8,,,,,,,
13.7,-0.00456,-160.5,,,,,,,
13.76,-0.00452,-153.5,,,,,,,
13.77,-0.00451,-152.0,,,,,,,
13.84,-0.00446,-143.9,,,,,,,
13.9,-0.00441,-135.5,,,,,,,
13.97,-0.00436,-126.8,,,,,,,
14.02,-0.00431,-119.1,,,,,,,
14.08,-0.00426,-110.9,,,,,,,
14.13,-0.00421,-102.9,,,,,,,
14.18,-0.00416,-95.98,,,,,,,
14.24,-0.00411,-88.05,,,,,,,
14.3,-0.00406,-80.45,,,,,,,
14.35,-0.00401,-72.96,,,,,,,
14.41,-0.00396,-65.23,,,,,,,
14.47,-0.00391,-57.64,,,,,,,
14.52,-0.00386,-50.57,,,,,,,
14.58,-0.00381,-43.24,,,,,,,
14.63,-0.00376,-35.87,,,,,,,
14.69,-0.00371,-28.97,,,,,,,
14.75,-0.00366,-21.26,,,,,,,
14.76,-0.00365,-19.37,,,,,,,
14.81,-0.00361,-13.1,,,,,,,
14.87,-0.00356,-5.18,,,,,,,
14.93,-0.00351,2.93,,,,,,,
14.99,-0.00345,10.86,,,,,,,
15.04,-0.0034,18.26,,,,,,,
15.1,-0.00335,25.36,,,,,,,
15.18,-0.0033,31.14,,,,,,,
15.27,-0.00325,39.05,,,,,,,
15.32,-0.0032,46.82,,,,,,,
15.37,-0.00315,53.53,,,,,,,
15.43,-0.0031,60.34,,,,,,,
15.5,-0.00305,67.44,,,,,,,
15.57,-0.003,73.99,,,,,,,
15.64,-0.00295,81.58,,,,,,,
15.71,-0.0029,88.84,,,,,,,
15.76,-0.00285,95.07,,,,,,,
15.77,-0.00285,95.67,,,,,,,
15.82,-0.0028,103.2,,,,,,,
15.85,-0.00275,110.67,,,,,,,
15.88,-0.0027,117.83,,,,,,,
15.91,-0.00265,124.86,,,,,,,
15.94,-0.0026,131.43,,,,,,,
15.97,-0.00255,137.43,,,,,,,
16.0,-0.0025,142.35,,,,,,,
16.02,-0.00245,145.91,,,,,,,
16.04,-0.00239,148.44,,,,,,,
16.06,-0.00234,150.75,,,,,,,
16.08,-0.00229,152.8,,,,,,,
16.1,-0.00224,154.88,,,,,,,
16.14,-0.00219,156.84,,,,,,,
16.22,-0.00214,158.74,,,,,,,
16.3,-0.00209,161.5,,,,,,,
16.37,-0.00204,165.79,,,,,,,
16.43,-0.00199,169.16,,,,,,,
16.45,-0.00194,167.47,,,,,,,
16.47,-0.00189,168.47,,,,,,,
16.5,-0.00184,169.42,,,,,,,
16.51,-0.00179,169.74,,,,,,,
16.53,-0.00174,170.08,,,,,,,
16.56,-0.00169,170.01,,,,,,,
16.76,-0.00164,167.92,,,,,,,
16.76,-0.00164,168.0,,,,,,,
16.84,-0.00159,173.23,,,,,,,
16.9,-0.00153,178.57,,,,,,,
16.93,-0.00148,176.36,,,,,,,
16.93,-0.0014,176.67,,,,,,,
16.93,-0.00133,176.85,,,,,,,
16.93,-0.00126,176.96,,,,,,,
16.93,-0.0012,177.19,,,,,,,
16.94,-0.00114,177.46,,,,,,,
17.12,-0.00119,161.1,,,,,,,
17.3,-0.00114,165.67,,,,,,,
17.36,-0.00109,172.39,,,,,,,
17.41,-0.00104,178.9,,,,,,,
17.46,-0.00099,185.06,,,,,,,
17.49,-0.00093,180.35,,,,,,,
17.49,-0.00088,180.74,,,,,,,
17.49,-0.00082,181.05,,,,,,,
17.5,-0.00077,181.62,,,,,,,
17.67,-0.00072,185.92,,,,,,,
17.75,-0.00067,187.3,,,,,,,
17.76,-0.00064,188.36,,,,,,,
17.78,-0.00062,189.59,,,,,,,
17.8,-0.00057,186.88,,,,,,,
17.8,-0.00052,187.12,,,,,,,
17.81,-0.00046,187.51,,,,,,,
17.92,-0.00041,189.63,,,,,,,
18.04,-0.00036,192.97,,,,,,,
18.08,-0.0003,190.16,,,,,,,
18.08,-0.00022,190.32,,,,,,,
18.08,-0.00014,190.39,,,,,,,
18.08,-5e-05,190.51,,,,,,,
18.09,4e-05,190.64,,,,,,,
18.09,0.0001,190.81,,,,,,,
18.09,0.00015,191.13,,,,,,,
18.1,0.0001,191.41,,,,,,,
18.21,5e-05,173.65,,,,,,,
18.25,-0.0,166.39,,,,,,,
18.5,5e-05,173.41,,,,,,,
18.55,0.0001,180.57,,,,,,,
18.6,0.00015,187.24,,,,,,,
18.65,0.0002,193.62,,,,,,,
18.7,0.00025,199.71,,,,,,,
18.71,0.00032,191.87,,,,,,,
18.72,0.00037,192.15,,,,,,,
18.72,0.00042,192.47,,,,,,,
18.75,0.00047,195.53,,,,,,,
18.76,0.00048,196.2,,,,,,,
18.81,0.00052,196.88,,,,,,,
18.98,0.00057,199.73,,,,,,,
19.06,0.00063,194.68,,,,,,,
19.07,0.00069,194.96,,,,,,,
19.07,0.00076,195.18,,,,,,,
19.07,0.00084,195.41,,,,,,,
19.07,0.00092,195.6,,,,,,,
19.07,0.00097,195.94,,,,,,,
19.44,0.00102,190.65,,,,,,,
19.49,0.00107,195.9,,,,,,,
19.55,0.00112,201.69,,,,,,,
19.58,0.00118,198.0,,,,,,,
19.58,0.00127,198.48,,,,,,,
19.58,0.00135,198.68,,,,,,,
19.58,0.00144,198.82,,,,,,,
19.59,0.00152,199.09,,,,,,,
19.59,0.00157,199.42,,,,,,,
19.71,0.00152,187.53,,,,,,,
19.76,0.00149,181.14,,,,,,,
19.8,0.00147,178.38,,,,,,,
19.96,0.00152,185.62,,,,,,,
20.02,0.00157,192.41,,,,,,,
20.07,0.00162,199.4,,,,,,,
20.12,0.00167,205.97,,,,,,,
20.14,0.00173,199.35,,,,,,,
20.14,0.00178,199.83,,,,,,,
20.15,0.00186,200.07,,,,,,,
20.15,0.00195,200.32,,,,,,,
20.15,0.00205,200.53,,,,,,,
20.15,0.00212,200.89,,,,,,,
20.15,0.00218,201.24,,,,,,,
20.16,0.00212,202.2,,,,,,,
20.3,0.00207,187.41,,,,,,,
20.56,0.00212,192.67,,,,,,,
20.6,0.00218,198.88,,,,,,,
20.65,0.00223,204.84,,,,,,,
20.7,0.00228,203.92,,,,,,,
20.72,0.00233,205.34,,,,,,,
20.75,0.00238,202.48,,,,,,,
20.76,0.00243,203.54,,,,,,,
20.76,0.00244,204.28,,,,,,,
20.81,0.00248,208.16,,,,,,,
20.85,0.00254,208.2,,,,,,,
20.86,0.00259,208.4,,,,,,,
20.91,0.00264,208.93,,,,,,,
21.08,0.00269,210.77,,,,,,,
21.13,0.00275,205.74,,,,,,,
21.14,0.00283,206.2,,,,,,,
21.14,0.00293,206.26,,,,,,,
21.14,0.00298,206.31,,,,,,,
21.14,0.00304,206.33,,,,,,,
21.14,0.00309,206.44,,,,,,,
21.14,0.00318,206.65,,,,,,,
21.15,0.00325,206.87,,,,,,,
21.23,0.0032,197.12,,,,,,,
21.27,0.00315,188.44,,,,,,,
21.3,0.00309,180.36,,,,,,,
21.38,0.00304,172.53,,,,,,,
21.51,0.00309,179.12,,,,,,,
21.56,0.00314,185.42,,,,,,,
21.61,0.0032,191.99,,,,,,,
21.66,0.00325,198.24,,,,,,,
21.71,0.0033,204.24,,,,,,,
21.75,0.00335,209.92,,,,,,,
21.76,0.00336,210.97,,,,,,,
21.8,0.0034,203.65,,,,,,,
21.8,0.00347,204.3,,,,,,,
21.8,0.00353,204.46,,,,,,,
21.8,0.00359,204.63,,,,,,,
21.81,0.00364,204.9,,,,,,,
21.81,0.00369,205.39,,,,,,,
22.16,0.00374,210.33,,,,,,,
22.2,0.00379,212.45,,,,,,,
22.21,0.00386,208.2,,,,,,,
22.21,0.00394,208.45,,,,,,,
22.21,0.00402,208.63,,,,,,,
22.21,0.00411,208.86,,,,,,,
22.22,0.00418,209.16,,,,,,,
22.22,0.00424,209.4,,,,,,,
22.23,0.00419,210.37,,,,,,,
22.4,0.00414,190.54,,,,,,,
22.6,0.00419,194.78,,,,,,,
22.65,0.00424,201.25,,,,,,,
22.7,0.00429,207.09,,,,,,,
22.75,0.00434,213.01,,,,,,,
22.76,0.00436,214.98,,,,,,,
22.79,0.00439,212.52,,,,,,,
22.8,0.00444,213.17,,,,,,,
22.83,0.00449,216.1,,,,,,,
22.84,0.00455,210.26,,,,,,,
22.84,0.00462,210.57,,,,,,,
22.84,0.00472,210.67,,,,,,,
22.84,0.00478,210.82,,,,,,,
22.84,0.00484,210.89,,,,,,,
22.84,0.00491,210.92,,,,,,,
22.85,0.00496,211.0,,,,,,,
22.85,0.00501,211.05,,,,,,,
22.85,0.00509,211.33,,,,,,,
22.92,0.00504,199.4,,,,,,,
22.95,0.00499,189.37,,,,,,,
22.97,0.00494,180.29,,,,,,,
22.99,0.00489,172.1,,,,,,,
23.01,0.00483,164.59,,,,,,,
23.03,0.00478,157.26,,,,,,,
23.06,0.00473,149.89,,,,,,,
23.08,0.00468,142.77,,,,,,,
23.11,0.00463,135.93,,,,,,,
23.14,0.00458,129.0,,,,,,,
23.19,0.00453,121.66,,,,,,,
23.24,0.00448,114.39,,,,,,,
23.3,0.00443,105.99,,,,,,,
23.37,0.00438,97.7,,,,,,,
23.43,0.00433,90.07,,,,,,,
23.49,0.00428,82.04,,,,,,,
23.54,0.00423,74.25,,,,,,,
23.6,0.00418,66.69,,,,,,,
23.65,0.00413,59.38,,,,,,,
23.71,0.00408,51.29,,,,,,,
23.76,0.00403,44.76,,,,,,,
23.77,0.00403,43.98,,,,,,,
23.82,0.00398,37.22,,,,,,,
23.87,0.00393,30.55,,,,,,,
23.93,0.00388,23.5,,,,,,,
23.99,0.00382,16.04,,,,,,,
24.05,0.00377,8.6,,,,,,,
24.11,0.00372,1.26,,,,,,,
24.17,0.00367,-6.33,,,,,,,
24.23,0.00362,-14.27,,,,,,,
24.29,0.00357,-21.19,,,,,,,
24.51,0.00352,-27.05,,,,,,,
24.59,0.00347,-33.43,,,,,,,
24.66,0.00342,-40.03,,,,,,,
24.7,0.00337,-47.83,,,,,,,
24.72,0.00332,-55.07,,,,,,,
24.75,0.00327,-62.36,,,,,,,
24.76,0.00324,-66.01,,,,,,,
24.77,0.00322,-69.32,,,,,,,
24.8,0.00317,-76.34,,,,,,,
24.83,0.00312,-83.28,,,,,,,
24.85,0.00307,-90.08,,,,,,,
24.88,0.00302,-96.97,,,,,,,
24.92,0.00297,-103.5,,,,,,,
24.95,0.00292,-110.1,,,,,,,
24.99,0.00286,-116.4,,,,,,,
25.03,0.00281,-122.4,,,,,,,
25.07,0.00276,-128.2,,,,,,,
25.11,0.00271,-133.8,,,,,,,
25.16,0.00266,-139.1,,,,,,,
25.2,0.00261,-144.0,,,,,,,
25.25,0.00256,-148.6,,,,,,,
25.29,0.00251,-152.6,,,,,,,
25.33,0.00246,-155.9,,,,,,,
25.37,0.00241,-158.6,,,,,,,
25.41,0.00236,-160.8,,,,,,,
25.46,0.00231,-163.0,,,,,,,
25.51,0.00226,-165.0,,,,,,,
25.58,0.00221,-167.5,,,,,,,
25.64,0.00216,-170.4,,,,,,,
25.69,0.00211,-173.1,,,,,,,
25.73,0.00206,-174.6,,,,,,,
25.76,0.00201,-175.0,,,,,,,
25.76,0.00199,-175.1,,,,,,,
25.78,0.00196,-175.4,,,,,,,
25.82,0.0019,-175.8,,,,,,,
25.88,0.00185,-176.3,,,,,,,
25.99,0.0018,-178.0,,,,,,,
26.06,0.00175,-181.7,,,,,,,
26.11,0.0017,-184.5,,,,,,,
26.12,0.00165,-181.7,,,,,,,
26.12,0.00159,-181.8,,,,,,,
26.13,0.00153,-181.9,,,,,,,
26.13,0.00147,-182.0,,,,,,,
26.13,0.00141,-182.2,,,,,,,
26.13,0.00136,-182.4,,,,,,,
26.31,0.00141,-163.3,,,,,,,
26.49,0.00136,-166.7,,,,,,,
26.55,0.00131,-172.6,,,,,,,
26.6,0.00126,-178.5,,,,,,,
26.64,0.00121,-184.2,,,,,,,
26.69,0.00116,-189.8,,,,,,,
26.74,0.0011,-188.0,,,,,,,
26.76,0.00107,-190.4,,,,,,,
26.77,0.00105,-190.8,,,,,,,
26.78,0.001,-188.7,,,,,,,
26.79,0.00095,-189.2,,,,,,,
26.82,0.0009,-191.5,,,,,,,
26.88,0.00085,-192.4,,,,,,,
27.01,0.0008,-194.2,,,,,,,
27.08,0.00075,-197.9,,,,,,,
27.1,0.0007,-193.9,,,,,,,
27.1,0.00063,-194.1,,,,,,,
27.1,0.00057,-194.3,,,,,,,
27.11,0.00052,-194.7,,,,,,,
27.35,0.00047,-193.5,,,,,,,
27.43,0.00042,-199.0,,,,,,,
27.48,0.00036,-195.1,,,,,,,
27.48,0.00027,-195.3,,,,,,,
27.48,0.00021,-195.5,,,,,,,
27.49,0.00015,-195.6,,,,,,,
27.49,8e-05,-195.7,,,,,,,
27.49,1e-05,-195.8,,,,,,,
27.49,-7e-05,-195.8,,,,,,,
27.49,-0.00014,-195.9,,,,,,,
27.49,-0.00021,-196.0,,,,,,,
27.49,-0.00027,-196.1,,,,,,,
27.49,-0.00036,-196.4,,,,,,,
27.5,-0.00031,-197.1,,,,,,,
27.57,-0.00026,-179.5,,,,,,,
27.59,-0.0002,-171.2,,,,,,,
27.62,-0.00015,-163.2,,,,,,,
27.64,-0.0001,-155.5,,,,,,,
27.66,-5e-05,-148.1,,,,,,,
27.7,0.0,-141.1,,,,,,,
27.76,4e-05,-136.4,,,,,,,
27.9,-5e-05,-149.7,,,,,,,
27.95,-0.0001,-156.9,,,,,,,
27.99,-0.00015,-163.9,,,,,,,
28.04,-0.0002,-170.1,,,,,,,
28.09,-0.00025,-176.4,,,,,,,
28.14,-0.0003,-182.6,,,,,,,
28.18,-0.00035,-188.3,,,,,,,
28.24,-0.0004,-194.0,,,,,,,
28.29,-0.00045,-199.5,,,,,,,
28.34,-0.0005,-204.7,,,,,,,
28.38,-0.00055,-199.9,,,,,,,
28.43,-0.0006,-205.2,,,,,,,
28.47,-0.00065,-207.3,,,,,,,
28.48,-0.00071,-207.9,,,,,,,
28.53,-0.00076,-208.2,,,,,,,
28.54,-0.00081,-205.9,,,,,,,
28.55,-0.00088,-205.9,,,,,,,
28.55,-0.00095,-206.0,,,,,,,
28.55,-0.00102,-206.2,,,,,,,
28.56,-0.00107,-206.4,,,,,,,
28.73,-0.00102,-190.0,,,,,,,
28.76,-0.00101,-187.7,,,,,,,
28.91,-0.00107,-193.2,,,,,,,
28.96,-0.00112,-198.7,,,,,,,
29.01,-0.00117,-204.4,,,,,,,
29.06,-0.00122,-210.1,,,,,,,
29.11,-0.00127,-215.6,,,,,,,
29.12,-0.00133,-206.4,,,,,,,
29.12,-0.0014,-206.6,,,,,,,
29.12,-0.00146,-206.8,,,,,,,
29.13,-0.00154,-206.9,,,,,,,
29.13,-0.00162,-207.0,,,,,,,
29.13,-0.00171,-207.1,,,,,,,
29.13,-0.00181,-207.1,,,,,,,
29.13,-0.0019,-207.2,,,,,,,
29.13,-0.00199,-207.4,,,,,,,
29.13,-0.00206,-207.5,,,,,,,
29.13,-0.00213,-207.7,,,,,,,
29.13,-0.00221,-207.8,,,,,,,
29.14,-0.00215,-208.4,,,,,,,
29.2,-0.0021,-191.2,,,,,,,
29.21,-0.00205,-183.0,,,,,,,
29.23,-0.002,-173.7,,,,,,,
29.24,-0.00194,-166.1,,,,,,,
29.26,-0.00189,-158.3,,,,,,,
29.28,-0.00184,-150.2,,,,,,,
29.29,-0.00179,-143.5,,,,,,,
29.31,-0.00174,-135.7,,,,,,,
29.34,-0.00169,-129.1,,,,,,,
29.38,-0.00164,-122.3,,,,,,,
29.51,-0.00169,-130.0,,,,,,,
29.56,-0.00174,-137.4,,,,,,,
29.61,-0.00179,-144.5,,,,,,,
29.65,-0.00184,-151.3,,,,,,,
29.7,-0.00189,-157.9,,,,,,,
29.75,-0.00194,-164.6,,,,,,,
29.76,-0.00195,-165.8,,,,,,,
29.8,-0.00199,-171.0,,,,,,,
29.86,-0.00204,-177.4,,,,,,,
29.91,-0.00209,-183.6,,,,,,,
29.97,-0.00215,-189.8,,,,,,,
30.02,-0.0022,-196.1,,,,,,,
30.07,-0.00225,-202.1,,,,,,,
30.13,-0.0023,-208.2,,,,,,,
30.18,-0.00235,-214.0,,,,,,,
30.23,-0.0024,-206.9,,,,,,,
30.23,-0.00246,-207.6,,,,,,,
30.24,-0.00252,-208.2,,,,,,,
30.27,-0.00257,-211.5,,,,,,,
30.37,-0.00262,-215.0,,,,,,,
30.43,-0.00267,-216.7,,,,,,,
30.45,-0.00272,-217.2,,,,,,,
30.53,-0.00277,-210.5,,,,,,,
30.54,-0.00283,-210.8,,,,,,,
30.58,-0.00288,-212.4,,,,,,,
30.71,-0.00293,-215.1,,,,,,,
30.76,-0.00297,-218.5,,,,,,,
30.79,-0.00298,-220.1,,,,,,,
30.81,-0.00305,-211.3,,,,,,,
30.81,-0.00313,-211.7,,,,,,,
30.81,-0.00319,-211.7,,,,,,,
30.81,-0.00325,-211.9,,,,,,,
30.81,-0.00331,-211.9,,,,,,,
30.81,-0.00337,-211.9,,,,,,,
30.81,-0.00343,-212.0,,,,,,,
30.81,-0.00349,-212.1,,,,,,,
30.82,-0.00357,-212.4,,,,,,,
30.82,-0.00363,-212.6,,,,,,,
30.83,-0.00358,-213.0,,,,,,,
30.9,-0.00353,-199.1,,,,,,,
30.92,-0.00348,-190.9,,,,,,,
30.95,-0.00343,-182.3,,,,,,,
30.98,-0.00338,-174.8,,,,,,,
31.02,-0.00333,-168.0,,,,,,,
31.21,-0.00338,-175.9,,,,,,,
31.25,-0.00343,-182.1,,,,,,,
31.3,-0.00348,-189.0,,,,,,,
31.35,-0.00353,-195.6,,,,,,,
31.4,-0.00358,-202.6,,,,,,,
31.45,-0.00363,-208.7,,,,,,,
31.5,-0.00368,-214.7,,,,,,,
31.55,-0.00373,-220.8,,,,,,,
31.61,-0.00378,-215.4,,,,,,,
31.62,-0.00384,-216.1,,,,,,,
31.66,-0.00389,-221.1,,,,,,,
31.71,-0.00394,-216.9,,,,,,,
31.71,-0.004,-217.1,,,,,,,
31.71,-0.00407,-217.3,,,,,,,
31.71,-0.00416,-217.4,,,,,,,
31.72,-0.00426,-217.5,,,,,,,
31.72,-0.00433,-217.7,,,,,,,
31.72,-0.00439,-217.9,,,,,,,
31.76,-0.00438,-216.7,,,,,,,
31.82,-0.00433,-205.6,,,,,,,
31.85,-0.00428,-197.6,,,,,,,
31.9,-0.00423,-190.3,,,,,,,
32.11,-0.00428,-196.7,,,,,,,
32.16,-0.00433,-203.3,,,,,,,
32.21,-0.00438,-209.5,,,,,,,
32.25,-0.00443,-215.8,,,,,,,
32.3,-0.00449,-221.9,,,,,,,
32.35,-0.00454,-227.4,,,,,,,
32.36,-0.00459,-217.6,,,,,,,
32.37,-0.00465,-218.1,,,,,,,
32.37,-0.00475,-218.2,,,,,,,
32.37,-0.0048,-218.3,,,,,,,
32.37,-0.00486,-218.3,,,,,,,
32.37,-0.00491,-218.3,,,,,,,
32.37,-0.00496,-218.4,,,,,,,
32.37,-0.00505,-218.7,,,,,,,
32.38,-0.0051,-218.7,,,,,,,
32.44,-0.00505,-206.2,,,,,,,
32.46,-0.005,-197.3,,,,,,,
32.48,-0.00495,-187.8,,,,,,,
32.5,-0.0049,-180.4,,,,,,,
32.52,-0.00484,-170.8,,,,,,,
32.53,-0.00479,-163.4,,,,,,,
32.55,-0.00474,-155.1,,,,,,,
32.57,-0.00469,-147.0,,,,,,,
32.59,-0.00464,-138.9,,,,,,,
32.61,-0.00459,-131.2,,,,,,,
32.64,-0.00453,-122.6,,,,,,,
32.67,-0.00448,-115.2,,,,,,,
32.71,-0.00443,-107.5,,,,,,,
32.76,-0.00438,-99.93,,,,,,,
32.76,-0.00438,-99.38,,,,,,,
32.81,-0.00433,-92.6,,,,,,,
32.87,-0.00428,-84.38,,,,,,,
32.93,-0.00423,-76.7,,,,,,,
32.99,-0.00418,-69.19,,,,,,,
33.04,-0.00413,-61.77,,,,,,,
33.1,-0.00408,-54.57,,,,,,,
33.16,-0.00403,-46.82,,,,,,,
33.21,-0.00398,-39.32,,,,,,,
33.28,-0.00393,-31.14,,,,,,,
33.33,-0.00388,-24.01,,,,,,,
33.38,-0.00383,-16.86,,,,,,,
33.44,-0.00378,-9.03,,,,,,,
33.5,-0.00373,-1.28,,,,,,,
33.56,-0.00368,6.1,,,,,,,
33.61,-0.00362,13.36,,,,,,,
33.67,-0.00357,20.52,,,,,,,
33.73,-0.00352,27.26,,,,,,,
33.76,-0.00351,28.91,,,,,,,
33.83,-0.00347,33.65,,,,,,,
33.9,-0.00342,41.34,,,,,,,
33.93,-0.00337,47.63,,,,,,,
33.99,-0.00332,53.91,,,,,,,
34.06,-0.00327,60.47,,,,,,,
34.13,-0.00322,66.44,,,,,,,
34.19,-0.00317,72.15,,,,,,,
34.27,-0.00312,78.74,,,,,,,
34.33,-0.00307,85.06,,,,,,,
34.4,-0.00302,91.94,,,,,,,
34.45,-0.00297,98.67,,,,,,,
34.48,-0.00292,105.37,,,,,,,
34.52,-0.00287,112.73,,,,,,,
34.55,-0.00282,119.66,,,,,,,
34.58,-0.00276,126.33,,,,,,,
34.61,-0.00271,132.74,,,,,,,
34.65,-0.00266,138.68,,,,,,,
34.68,-0.00261,144.55,,,,,,,
34.71,-0.00256,150.06,,,,,,,
34.75,-0.00251,154.85,,,,,,,
34.76,-0.00249,156.68,,,,,,,
34.78,-0.00246,158.67,,,,,,,
34.81,-0.00241,161.72,,,,,,,
34.84,-0.00236,164.13,,,,,,,
34.87,-0.00231,166.43,,,,,,,
34.92,-0.00226,168.4,,,,,,,
34.98,-0.00221,170.54,,,,,,,
35.05,-0.00216,173.27,,,,,,,
35.11,-0.00211,176.71,,,,,,,
35.17,-0.00206,179.87,,,,,,,
35.21,-0.00201,180.53,,,,,,,
35.24,-0.00196,181.84,,,,,,,
35.27,-0.00191,182.99,,,,,,,
35.28,-0.00186,183.4,,,,,,,
35.3,-0.0018,183.4,,,,,,,
35.31,-0.00175,183.32,,,,,,,
35.33,-0.0017,183.28,,,,,,,
35.57,-0.00165,177.46,,,,,,,
35.64,-0.0016,181.86,,,,,,,
35.7,-0.00155,186.95,,,,,,,
35.75,-0.0015,191.81,,,,,,,
35.76,-0.00149,192.86,,,,,,,
35.79,-0.00145,190.79,,,,,,,
35.79,-0.00138,191.04,,,,,,,
35.79,-0.00132,191.22,,,,,,,
35.8,-0.00124,191.36,,,,,,,
35.8,-0.00117,191.52,,,,,,,
35.8,-0.00111,191.73,,,,,,,
35.8,-0.00105,192.01,,,,,,,
35.94,-0.0011,177.49,,,,,,,
36.2,-0.00105,176.81,,,,,,,
36.25,-0.001,182.46,,,,,,,
36.3,-0.00095,188.43,,,,,,,
36.36,-0.0009,193.9,,,,,,,
36.41,-0.00085,199.53,,,,,,,
36.42,-0.00078,194.62,,,,,,,
36.42,-0.00072,194.88,,,,,,,
36.43,-0.00065,195.19,,,,,,,
36.47,-0.0006,197.7,,,,,,,
36.68,-0.00055,198.52,,,,,,,
36.75,-0.0005,203.71,,,,,,,
36.76,-0.00049,204.6,,,,,,,
36.78,-0.00044,195.15,,,,,,,
36.78,-0.00038,195.38,,,,,,,
36.78,-0.00031,195.62,,,,,,,
36.79,-0.00026,196.05,,,,,,,
36.98,-0.00021,197.77,,,,,,,
75.9,-0.00017,207.76,,,,,,,
75.96,-0.00011,212.53,,,,,,,
76.01,-6e-05,215.25,,,,,,,
76.02,0.0,215.65,,,,,,,
76.02,6e-05,215.89,,,,,,,
76.03,0.00011,216.19,,,,,,,
76.08,0.00016,217.8,,,,,,,
76.26,0.00021,215.33,,,,,,,
76.34,0.00026,219.25,,,,,,,
76.4,0.00031,219.64,,,,,,,
76.44,0.00036,223.75,,,,,,,
76.47,0.00042,217.19,,,,,,,
76.47,0.00048,217.42,,,,,,,
76.47,0.00055,217.61,,,,,,,
76.48,0.0006,218.02,,,,,,,
76.6,0.00065,218.02,,,,,,,
76.73,0.0007,216.71,,,,,,,
76.76,0.00072,217.6,,,,,,,
76.81,0.00075,220.09,,,,,,,
76.87,0.0008,224.53,,,,,,,
76.92,0.00085,228.62,,,,,,,
76.96,0.0009,224.56,,,,,,,
76.96,0.00095,224.79,,,,,,,
76.96,0.00103,224.91,,,,,,,
76.96,0.00111,225.06,,,,,,,
76.96,0.00118,225.23,,,,,,,
76.97,0.00124,225.44,,,,,,,
77.15,0.00119,207.45,,,,,,,
77.33,0.00124,210.67,,,,,,,
77.38,0.00129,216.11,,,,,,,
77.43,0.00134,221.43,,,,,,,
77.47,0.00139,226.66,,,,,,,
77.52,0.00144,231.51,,,,,,,
77.54,0.00151,226.45,,,,,,,
77.54,0.00158,226.79,,,,,,,
77.54,0.00167,226.92,,,,,,,
77.54,0.00172,227.0,,,,,,,
77.54,0.00177,227.05,,,,,,,
77.55,0.00186,227.29,,,,,,,
77.55,0.00194,227.55,,,,,,,
77.55,0.00199,227.98,,,,,,,
77.56,0.00194,228.37,,,,,,,
77.66,0.00189,211.42,,,,,,,
77.7,0.00184,202.59,,,,,,,
77.76,0.00179,194.34,,,,,,,
77.78,0.00178,193.53,,,,,,,
77.92,0.00184,198.64,,,,,,,
77.97,0.00189,204.64,,,,,,,
78.01,0.00194,209.97,,,,,,,
78.05,0.00199,215.27,,,,,,,
78.1,0.00204,220.23,,,,,,,
78.15,0.00209,224.95,,,,,,,
78.19,0.00214,229.24,,,,,,,
78.24,0.00219,233.58,,,,,,,
78.29,0.00224,237.11,,,,,,,
78.34,0.00229,240.73,,,,,,,
78.35,0.00235,228.49,,,,,,,
78.35,0.00243,228.95,,,,,,,
78.35,0.00249,229.01,,,,,,,
78.36,0.00255,229.02,,,,,,,
78.36,0.00261,229.11,,,,,,,
78.36,0.00267,229.06,,,,,,,
78.36,0.00274,229.07,,,,,,,
78.36,0.00279,229.2,,,,,,,
78.36,0.00288,229.46,,,,,,,
78.36,0.00294,229.6,,,,,,,
78.37,0.00289,229.99,,,,,,,
78.45,0.00284,212.77,,,,,,,
78.47,0.00279,203.99,,,,,,,
78.5,0.00274,195.4,,,,,,,
78.53,0.00268,187.3,,,,,,,
78.58,0.00263,179.46,,,,,,,
78.75,0.00268,184.86,,,,,,,
78.76,0.00269,185.86,,,,,,,
78.8,0.00273,191.27,,,,,,,
78.85,0.00279,197.31,,,,,,,
78.89,0.00284,203.33,,,,,,,
78.94,0.00289,208.52,,,,,,,
78.99,0.00294,214.3,,,,,,,
79.04,0.00299,219.8,,,,,,,
79.09,0.00304,225.01,,,,,,,
79.14,0.00309,229.77,,,,,,,
79.19,0.00314,234.46,,,,,,,
79.24,0.00319,238.72,,,,,,,
79.29,0.00324,242.77,,,,,,,
79.32,0.00329,232.0,,,,,,,
79.36,0.00334,235.7,,,,,,,
79.41,0.00339,239.32,,,,,,,
79.46,0.00344,241.59,,,,,,,
79.49,0.0035,235.29,,,,,,,
79.53,0.00355,237.28,,,,,,,
79.6,0.0036,240.0,,,,,,,
79.67,0.00365,242.43,,,,,,,
79.72,0.0037,244.35,,,,,,,
79.75,0.00376,242.67,,,,,,,
79.75,0.00382,242.81,,,,,,,
79.76,0.00385,243.19,,,,,,,
79.79,0.00387,243.73,,,,,,,
79.9,0.00392,242.73,,,,,,,
79.99,0.00397,244.49,,,,,,,
80.06,0.00402,247.66,,,,,,,
80.08,0.00407,236.03,,,,,,,
80.08,0.00413,236.46,,,,,,,
80.08,0.00421,236.52,,,,,,,
80.09,0.00431,236.59,,,,,,,
80.09,0.0044,236.72,,,,,,,
80.09,0.00448,236.95,,,,,,,
80.09,0.00453,237.1,,,,,,,
80.1,0.00448,237.6,,,,,,,
80.22,0.00443,218.07,,,,,,,
80.28,0.00438,209.43,,,,,,,
80.48,0.00443,211.68,,,,,,,
80.53,0.00448,217.05,,,,,,,
80.57,0.00453,222.21,,,,,,,
80.62,0.00458,227.25,,,,,,,
80.66,0.00463,232.03,,,,,,,
80.71,0.00468,236.44,,,,,,,
80.76,0.00473,240.4,,,,,,,
80.76,0.00474,240.81,,,,,,,
80.81,0.00478,244.32,,,,,,,
80.86,0.00483,248.03,,,,,,,
80.91,0.00488,251.07,,,,,,,
80.94,0.00495,242.66,,,,,,,
80.94,0.00501,242.81,,,,,,,
80.94,0.0051,242.73,,,,,,,
80.94,0.00515,242.68,,,,,,,
80.95,0.00521,242.57,,,,,,,
80.95,0.0053,242.58,,,,,,,
80.95,0.00537,242.65,,,,,,,
81.01,0.00532,229.15,,,,,,,
81.03,0.00527,218.48,,,,,,,
81.05,0.00522,210.29,,,,,,,
81.07,0.00517,201.98,,,,,,,
81.08,0.00512,193.34,,,,,,,
81.1,0.00507,185.84,,,,,,,
81.12,0.00502,177.97,,,,,,,
81.13,0.00497,170.6,,,,,,,
81.15,0.00492,163.43,,,,,,,
81.17,0.00486,155.7,,,,,,,
81.2,0.00481,148.58,,,,,,,
81.23,0.00476,141.18,,,,,,,
81.26,0.00471,133.88,,,,,,,
81.3,0.00466,126.25,,,,,,,
81.35,0.00461,118.97,,,,,,,
81.41,0.00456,111.45,,,,,,,
81.48,0.00451,103.44,,,,,,,
81.54,0.00446,95.54,,,,,,,
81.59,0.00441,88.2,,,,,,,
81.66,0.00436,79.8,,,,,,,
81.71,0.00431,72.41,,,,,,,
81.76,0.00426,65.64,,,,,,,
81.76,0.00426,65.27,,,,,,,
81.81,0.00421,58.97,,,,,,,
81.86,0.00416,52.3,,,,,,,
81.92,0.00411,45.54,,,,,,,
81.97,0.00406,39.72,,,,,,,
82.02,0.00401,33.28,,,,,,,
82.08,0.00396,26.61,,,,,,,
82.14,0.00391,19.48,,,,,,,
82.2,0.00385,12.54,,,,,,,
82.26,0.0038,5.62,,,,,,,
82.32,0.00375,-1.12,,,,,,,
82.37,0.0037,-7.31,,,,,,,
82.43,0.00365,-14.16,,,,,,,
82.5,0.0036,-20.82,,,,,,,
82.72,0.00355,-26.11,,,,,,,
82.76,0.00353,-29.39,,,,,,,
82.82,0.0035,-33.92,,,,,,,
82.89,0.00345,-41.96,,,,,,,
82.92,0.0034,-50.45,,,,,,,
82.95,0.00335,-57.14,,,,,,,
82.97,0.0033,-63.92,,,,,,,
82.99,0.00325,-70.57,,,,,,,
83.02,0.0032,-77.22,,,,,,,
83.04,0.00315,-83.51,,,,,,,
83.07,0.00309,-89.71,,,,,,,
83.1,0.00304,-96.09,,,,,,,
83.13,0.00299,-102.1,,,,,,,
83.16,0.00294,-108.2,,,,,,,
83.2,0.00289,-113.6,,,,,,,
83.23,0.00284,-118.7,,,,,,,
83.27,0.00279,-123.6,,,,,,,
83.32,0.00274,-128.4,,,,,,,
83.36,0.00269,-133.1,,,,,,,
83.42,0.00264,-137.7,,,,,,,
83.47,0.00259,-142.6,,,,,,,
83.52,0.00254,-146.9,,,,,,,
83.57,0.00249,-151.0,,,,,,,
83.62,0.00244,-155.1,,,,,,,
83.67,0.00239,-159.0,,,,,,,
83.72,0.00234,-163.1,,,,,,,
83.76,0.00229,-166.5,,,,,,,
83.77,0.00229,-167.1,,,,,,,
83.82,0.00224,-170.9,,,,,,,
83.88,0.00219,-174.9,,,,,,,
83.92,0.00213,-178.4,,,,,,,
83.97,0.00208,-181.7,,,,,,,
84.02,0.00203,-184.8,,,,,,,
84.06,0.00198,-187.6,,,,,,,
84.11,0.00193,-190.2,,,,,,,
84.15,0.00188,-192.5,,,,,,,
84.2,0.00183,-194.2,,,,,,,
84.23,0.00178,-195.4,,,,,,,
84.29,0.00173,-196.6,,,,,,,
84.34,0.00168,-197.9,,,,,,,
84.4,0.00163,-199.4,,,,,,,
84.46,0.00158,-201.4,,,,,,,
84.5,0.00153,-202.4,,,,,,,
84.52,0.00147,-203.0,,,,,,,
84.58,0.00142,-204.0,,,,,,,
84.64,0.00137,-205.0,,,,,,,
84.69,0.00132,-206.0,,,,,,,
84.75,0.00127,-207.6,,,,,,,
84.76,0.00127,-207.8,,,,,,,
84.82,0.00122,-209.8,,,,,,,
84.87,0.00117,-211.5,,,,,,,
84.88,0.00112,-208.1,,,,,,,
84.88,0.00104,-208.3,,,,,,,
84.88,0.00097,-208.4,,,,,,,
84.88,0.0009,-208.4,,,,,,,
84.89,0.00085,-208.5,,,,,,,
85.06,0.0009,-185.7,,,,,,,
85.25,0.00085,-185.9,,,,,,,
85.3,0.0008,-190.9,,,,,,,
85.35,0.00075,-195.9,,,,,,,
85.4,0.0007,-200.8,,,,,,,
85.44,0.00065,-205.6,,,,,,,
85.49,0.0006,-210.0,,,,,,,
85.54,0.00054,-214.0,,,,,,,
85.59,0.00049,-218.2,,,,,,,
85.61,0.00044,-212.4,,,,,,,
85.66,0.00039,-216.2,,,,,,,
85.7,0.00034,-215.3,,,,,,,
85.75,0.00029,-218.1,,,,,,,
85.76,0.00028,-218.9,,,,,,,
85.81,0.00024,-220.3,,,,,,,
85.84,0.00019,-220.7,,,,,,,
85.85,0.00014,-221.3,,,,,,,
85.94,9e-05,-223.4,,,,,,,
86.01,3e-05,-225.0,,,,,,,
86.08,-2e-05,-222.8,,,,,,,
86.08,-8e-05,-223.0,,,,,,,
86.08,-0.00014,-223.1,,,,,,,
86.08,-0.0002,-223.2,,,,,,,
86.09,-0.00026,-223.4,,,,,,,
86.37,-0.00031,-214.1,,,,,,,
86.44,-0.00036,-217.9,,,,,,,
86.49,-0.00041,-221.7,,,,,,,
86.54,-0.00046,-226.1,,,,,,,
86.59,-0.00051,-230.0,,,,,,,
86.63,-0.00056,-233.6,,,,,,,
86.67,-0.00062,-223.8,,,,,,,
86.67,-0.00067,-223.8,,,,,,,
86.67,-0.00076,-224.1,,,,,,,
86.67,-0.00082,-224.1,,,,,,,
86.67,-0.00088,-224.2,,,,,,,
86.67,-0.00095,-224.2,,,,,,,
86.67,-0.00101,-224.2,,,,,,,
86.68,-0.00107,-224.3,,,,,,,
86.68,-0.00113,-224.4,,,,,,,
86.68,-0.00121,-224.7,,,,,,,
86.68,-0.00126,-224.9,,,,,,,
86.69,-0.00121,-225.2,,,,,,,
86.76,-0.00116,-209.8,,,,,,,
86.76,-0.00115,-208.4,,,,,,,
86.79,-0.00111,-199.4,,,,,,,
86.81,-0.00106,-191.9,,,,,,,
86.84,-0.00101,-183.2,,,,,,,
86.88,-0.00096,-174.8,,,,,,,
87.1,-0.00101,-180.5,,,,,,,
87.14,-0.00106,-187.0,,,,,,,
87.19,-0.00111,-193.2,,,,,,,
87.24,-0.00116,-199.3,,,,,,,
87.28,-0.00121,-204.7,,,,,,,
87.33,-0.00126,-210.2,,,,,,,
87.38,-0.00131,-215.6,,,,,,,
87.43,-0.00136,-220.7,,,,,,,
87.48,-0.00141,-225.2,,,,,,,
87.53,-0.00146,-230.0,,,,,,,
87.58,-0.00151,-234.1,,,,,,,
87.63,-0.00156,-238.2,,,,,,,
87.66,-0.00162,-230.1,,,,,,,
87.66,-0.00168,-230.1,,,,,,,
87.67,-0.00174,-230.6,,,,,,,
87.72,-0.00179,-233.0,,,,,,,
87.76,-0.00181,-232.6,,,,,,,
87.85,-0.00184,-231.5,,,,,,,
87.93,-0.00189,-233.7,,,,,,,
88.0,-0.00194,-237.2,,,,,,,
88.05,-0.00199,-240.7,,,,,,,
88.09,-0.00204,-241.7,,,,,,,
88.13,-0.00209,-228.9,,,,,,,
88.14,-0.00202,-230.9,,,,,,,
88.14,-0.00195,-230.9,,,,,,,
88.15,-0.00188,-231.2,,,,,,,
88.15,-0.00182,-231.4,,,,,,,
88.15,-0.00177,-231.9,,,,,,,
88.16,-0.00183,-232.5,,,,,,,
88.2,-0.00188,-240.5,,,,,,,
88.21,-0.00194,-240.1,,,,,,,
88.22,-0.00201,-241.4,,,,,,,
88.22,-0.00206,-241.8,,,,,,,
88.22,-0.00211,-242.4,,,,,,,
88.22,-0.00218,-243.1,,,,,,,
88.25,-0.00223,-236.0,,,,,,,
88.26,-0.00229,-237.3,,,,,,,
88.26,-0.00234,-237.8,,,,,,,
88.26,-0.0024,-238.0,,,,,,,
88.26,-0.00247,-238.4,,,,,,,
88.27,-0.00252,-239.0,,,,,,,
88.27,-0.00258,-239.4,,,,,,,
88.69,-0.00263,-223.0,,,,,,,
88.74,-0.00268,-228.0,,,,,,,
88.76,-0.0027,-230.5,,,,,,,
88.79,-0.00273,-233.0,,,,,,,
88.83,-0.00278,-237.6,,,,,,,
88.88,-0.00283,-242.3,,,,,,,
88.93,-0.00288,-246.5,,,,,,,
88.98,-0.00293,-250.4,,,,,,,
89.01,-0.00298,-243.0,,,,,,,
89.01,-0.00304,-243.3,,,,,,,
89.02,-0.00309,-244.0,,,,,,,
89.11,-0.00314,-246.8,,,,,,,
89.21,-0.00319,-248.2,,,,,,,
89.28,-0.00324,-250.9,,,,,,,
89.33,-0.00329,-254.4,,,,,,,
89.36,-0.00324,-250.3,,,,,,,
89.4,-0.00329,-254.6,,,,,,,
89.41,-0.00337,-245.2,,,,,,,
89.42,-0.00346,-245.7,,,,,,,
89.42,-0.00352,-245.8,,,,,,,
89.42,-0.00359,-245.9,,,,,,,
89.42,-0.00366,-245.9,,,,,,,
89.42,-0.00374,-245.9,,,,,,,
89.42,-0.00381,-246.1,,,,,,,
89.42,-0.00388,-246.3,,,,,,,
89.42,-0.00394,-246.5,,,,,,,
89.42,-0.00402,-246.7,,,,,,,
89.5,-0.00397,-231.4,,,,,,,
89.53,-0.00392,-220.8,,,,,,,
89.55,-0.00387,-213.1,,,,,,,
89.58,-0.00382,-203.9,,,,,,,
89.6,-0.00377,-196.2,,,,,,,
89.64,-0.00372,-188.6,,,,,,,
89.76,-0.00371,-186.4,,,,,,,
89.83,-0.00377,-194.0,,,,,,,
89.88,-0.00382,-200.2,,,,,,,
89.92,-0.00387,-205.8,,,,,,,
89.96,-0.00392,-211.7,,,,,,,
90.01,-0.00397,-217.1,,,,,,,
90.06,-0.00402,-222.7,,,,,,,
90.11,-0.00407,-228.1,,,,,,,
90.16,-0.00412,-232.9,,,,,,,
90.21,-0.00417,-237.6,,,,,,,
90.26,-0.00422,-241.7,,,,,,,
90.31,-0.00427,-246.0,,,,,,,
90.36,-0.00432,-250.3,,,,,,,
90.41,-0.00437,-254.3,,,,,,,
90.45,-0.00443,-248.8,,,,,,,
90.45,-0.00449,-248.9,,,,,,,
90.45,-0.00459,-249.2,,,,,,,
90.45,-0.00466,-249.2,,,,,,,
90.45,-0.00473,-249.3,,,,,,,
90.45,-0.00481,-249.3,,,,,,,
90.45,-0.00488,-249.3,,,,,,,
90.45,-0.00495,-249.4,,,,,,,
90.46,-0.00501,-249.5,,,,,,,
90.46,-0.00506,-249.7,,,,,,,
90.46,-0.00513,-249.7,,,,,,,
90.47,-0.00508,-250.1,,,,,,,
90.54,-0.00503,-230.8,,,,,,,
90.56,-0.00498,-221.0,,,,,,,
90.58,-0.00493,-213.2,,,,,,,
90.6,-0.00487,-204.3,,,,,,,
90.63,-0.00482,-197.1,,,,,,,
90.66,-0.00477,-189.2,,,,,,,
90.76,-0.00473,-182.6,,,,,,,
90.88,-0.00482,-194.4,,,,,,,
90.93,-0.00487,-200.1,,,,,,,
91.17,-0.00482,-183.7,,,,,,,
91.22,-0.00477,-174.9,,,,,,,
91.27,-0.00472,-167.1,,,,,,,
91.32,-0.00467,-159.1,,,,,,,
91.37,-0.00462,-150.7,,,,,,,
91.42,-0.00457,-142.8,,,,,,,
91.48,-0.00452,-134.6,,,,,,,
91.53,-0.00447,-126.8,,,,,,,
91.59,-0.00442,-119.2,,,,,,,
91.64,-0.00437,-111.8,,,,,,,
91.69,-0.00432,-104.9,,,,,,,
91.75,-0.00427,-97.32,,,,,,,
91.76,-0.00426,-95.64,,,,,,,
91.81,-0.00422,-89.89,,,,,,,
91.86,-0.00417,-82.58,,,,,,,
91.92,-0.00412,-75.08,,,,,,,
91.97,-0.00407,-67.81,,,,,,,
92.03,-0.00402,-60.84,,,,,,,
92.08,-0.00396,-53.51,,,,,,,
92.14,-0.00391,-46.75,,,,,,,
92.19,-0.00386,-40.01,,,,,,,
92.24,-0.00381,-33.52,,,,,,,
92.3,-0.00376,-27.08,,,,,,,
92.35,-0.00371,-19.98,,,,,,,
92.42,-0.00366,-12.32,,,,,,,
92.48,-0.00361,-4.59,,,,,,,
92.53,-0.00356,2.71,,,,,,,
92.59,-0.00351,9.7,,,,,,,
92.64,-0.00346,16.68,,,,,,,
92.69,-0.00341,23.03,,,,,,,
92.76,-0.00336,28.36,,,,,,,
92.76,-0.00336,28.43,,,,,,,
92.86,-0.00331,35.16,,,,,,,
92.91,-0.00326,42.08,,,,,,,
92.95,-0.00321,47.86,,,,,,,
93.0,-0.00316,53.63,,,,,,,
93.06,-0.00311,59.14,,,,,,,
93.13,-0.00306,64.47,,,,,,,
93.2,-0.00301,70.19,,,,,,,
93.27,-0.00296,75.83,,,,,,,
93.33,-0.00291,81.3,,,,,,,
93.39,-0.00286,87.07,,,,,,,
93.45,-0.00281,93.75,,,,,,,
93.49,-0.00276,100.56,,,,,,,
93.53,-0.0027,107.43,,,,,,,
93.56,-0.00265,114.11,,,,,,,
93.59,-0.0026,120.47,,,,,,,
93.63,-0.00255,126.75,,,,,,,
93.66,-0.0025,132.84,,,,,,,
93.69,-0.00245,138.71,,,,,,,
93.73,-0.0024,144.27,,,,,,,
93.76,-0.00235,149.26,,,,,,,
93.76,-0.00235,149.56,,,,,,,
93.8,-0.0023,154.21,,,,,,,
93.84,-0.00225,158.86,,,,,,,
93.88,-0.0022,163.23,,,,,,,
93.93,-0.00215,167.33,,,,,,,
93.97,-0.0021,171.14,,,,,,,
94.02,-0.00205,174.88,,,,,,,
94.07,-0.002,178.4,,,,,,,
94.12,-0.00195,181.86,,,,,,,
94.17,-0.0019,185.19,,,,,,,
94.22,-0.00185,188.34,,,,,,,
94.28,-0.00179,191.81,,,,,,,
94.32,-0.00174,194.6,,,,,,,
94.36,-0.00169,196.45,,,,,,,
94.39,-0.00164,197.41,,,,,,,
94.42,-0.00159,198.18,,,,,,,
94.45,-0.00154,198.93,,,,,,,
94.5,-0.00149,199.51,,,,,,,
94.59,-0.00144,199.87,,,,,,,
94.67,-0.00139,201.9,,,,,,,
94.73,-0.00134,204.93,,,,,,,
94.76,-0.00131,206.76,,,,,,,
94.78,-0.00129,207.89,,,,,,,
94.83,-0.00124,208.08,,,,,,,
94.86,-0.00119,209.82,,,,,,,
94.87,-0.00113,208.14,,,,,,,
94.87,-0.00108,208.32,,,,,,,
94.88,-0.00102,208.5,,,,,,,
94.88,-0.00097,208.76,,,,,,,
95.14,-0.00092,199.29,,,,,,,
95.21,-0.00087,202.93,,,,,,,
95.27,-0.00082,207.08,,,,,,,
95.32,-0.00077,211.19,,,,,,,
95.37,-0.00072,215.28,,,,,,,
95.43,-0.00067,214.22,,,,,,,
95.43,-0.00061,214.88,,,,,,,
95.48,-0.00056,218.21,,,,,,,
95.52,-0.00051,215.5,,,,,,,
95.52,-0.00045,215.75,,,,,,,
95.52,-0.00039,215.79,,,,,,,
95.53,-0.00033,215.89,,,,,,,
95.53,-0.00027,216.12,,,,,,,
95.76,-0.00027,200.18,,,,,,,
175.94,-6e-05,194.46,,,,,,,
176.12,-1e-05,194.37,,,,,,,
176.17,4e-05,199.39,,,,,,,
176.22,0.0001,204.1,,,,,,,
176.27,0.00015,208.78,,,,,,,
176.32,0.0002,213.55,,,,,,,
176.37,0.00025,217.53,,,,,,,
176.42,0.0003,222.14,,,,,,,
176.47,0.00035,226.27,,,,,,,
176.53,0.0004,230.27,,,,,,,
176.58,0.00045,234.31,,,,,,,
176.62,0.0005,237.7,,,,,,,
176.67,0.00055,240.86,,,,,,,
176.7,0.0006,237.34,,,,,,,
176.75,0.00065,240.3,,,,,,,
176.75,0.00072,229.89,,,,,,,
176.75,0.00082,230.22,,,,,,,
176.76,0.00089,230.2,,,,,,,
176.76,0.00097,230.19,,,,,,,
176.76,0.00105,230.26,,,,,,,
176.76,0.00113,230.25,,,,,,,
176.76,0.00121,230.32,,,,,,,
176.76,0.00129,230.38,,,,,,,
176.76,0.00135,230.4,,,,,,,
176.76,0.0014,230.53,,,,,,,
176.76,0.00147,230.6,,,,,,,
176.77,0.00141,230.85,,,,,,,
176.83,0.00136,216.08,,,,,,,
176.84,0.00131,207.18,,,,,,,
176.86,0.00126,197.98,,,,,,,
176.88,0.00121,190.1,,,,,,,
176.9,0.00116,181.86,,,,,,,
176.92,0.00111,174.09,,,,,,,
176.94,0.00106,166.47,,,,,,,
176.97,0.001,159.41,,,,,,,
177.18,0.00106,166.01,,,,,,,
177.23,0.00111,172.29,,,,,,,
177.27,0.00116,178.54,,,,,,,
177.32,0.00121,184.73,,,,,,,
177.37,0.00126,190.69,,,,,,,
177.42,0.00131,196.4,,,,,,,
177.48,0.00136,202.25,,,,,,,
177.52,0.00141,207.36,,,,,,,
177.57,0.00146,212.36,,,,,,,
177.62,0.00151,217.07,,,,,,,
177.67,0.00156,221.4,,,,,,,
177.72,0.00161,225.69,,,,,,,
177.76,0.00165,229.18,,,,,,,
177.77,0.00166,229.65,,,,,,,
177.82,0.00171,233.74,,,,,,,
177.87,0.00176,237.48,,,,,,,
177.92,0.00181,240.71,,,,,,,
177.97,0.00186,244.13,,,,,,,
178.02,0.00191,247.34,,,,,,,
178.07,0.00196,250.37,,,,,,,
178.12,0.00201,253.27,,,,,,,
178.13,0.00207,238.03,,,,,,,
178.13,0.00213,238.52,,,,,,,
178.13,0.00221,238.57,,,,,,,
178.13,0.00229,238.5,,,,,,,
178.14,0.00236,238.72,,,,,,,
178.14,0.00242,239.02,,,,,,,
178.28,0.00237,220.79,,,,,,,
178.53,0.00242,219.04,,,,,,,
178.58,0.00247,223.99,,,,,,,
178.63,0.00252,228.87,,,,,,,
178.67,0.00257,233.42,,,,,,,
178.72,0.00262,237.63,,,,,,,
178.76,0.00266,241.26,,,,,,,
178.77,0.00267,241.49,,,,,,,
178.81,0.00272,245.31,,,,,,,
178.86,0.00277,248.69,,,,,,,
178.91,0.00282,251.24,,,,,,,
178.96,0.00287,254.46,,,,,,,
179.01,0.00292,257.05,,,,,,,
179.04,0.00298,247.19,,,,,,,
179.05,0.00305,247.39,,,,,,,
179.05,0.00312,247.42,,,,,,,
179.05,0.0032,247.42,,,,,,,
179.05,0.00328,247.55,,,,,,,
179.05,0.00334,247.72,,,,,,,
179.2,0.00329,227.74,,,,,,,
179.45,0.00334,224.94,,,,,,,
179.49,0.00339,229.62,,,,,,,
179.54,0.00344,234.12,,,,,,,
179.59,0.00349,238.33,,,,,,,
179.63,0.00354,242.31,,,,,,,
179.68,0.00359,246.19,,,,,,,
179.73,0.00364,249.62,,,,,,,
179.76,0.00368,252.02,,,,,,,
179.78,0.0037,252.81,,,,,,,
179.82,0.00375,255.73,,,,,,,
179.87,0.0038,258.17,,,,,,,
179.91,0.00385,260.5,,,,,,,
179.96,0.0039,262.53,,,,,,,
180.0,0.00395,257.92,,,,,,,
180.04,0.004,259.2,,,,,,,
180.08,0.00405,260.56,,,,,,,
180.14,0.0041,261.49,,,,,,,
180.19,0.00415,262.32,,,,,,,
180.24,0.0042,263.26,,,,,,,
180.3,0.00425,264.25,,,,,,,
180.36,0.0043,265.36,,,,,,,
180.41,0.00435,266.85,,,,,,,
180.46,0.0044,268.45,,,,,,,
180.51,0.00446,261.69,,,,,,,
180.51,0.00451,261.83,,,,,,,
180.52,0.00458,261.86,,,,,,,
180.52,0.00465,261.83,,,,,,,
180.52,0.00473,261.89,,,,,,,
180.52,0.00479,262.04,,,,,,,
180.53,0.00484,262.21,,,,,,,
180.66,0.00479,243.53,,,,,,,
180.76,0.00476,231.3,,,,,,,
180.91,0.00484,233.35,,,,,,,
180.96,0.00489,236.2,,,,,,,
181.21,0.00484,208.45,,,,,,,
181.25,0.00479,199.1,,,,,,,
181.3,0.00474,190.6,,,,,,,
181.34,0.00469,182.29,,,,,,,
181.39,0.00464,174.29,,,,,,,
181.43,0.00459,166.53,,,,,,,
181.49,0.00454,158.9,,,,,,,
181.54,0.00449,150.57,,,,,,,
181.6,0.00444,143.27,,,,,,,
181.65,0.00439,135.86,,,,,,,
181.71,0.00433,128.26,,,,,,,
181.76,0.00428,121.34,,,,,,,
181.76,0.00428,120.67,,,,,,,
181.81,0.00423,114.45,,,,,,,
181.86,0.00418,107.52,,,,,,,
181.92,0.00413,100.72,,,,,,,
181.97,0.00408,93.88,,,,,,,
182.03,0.00403,87.32,,,,,,,
182.08,0.00398,80.15,,,,,,,
182.14,0.00393,72.91,,,,,,,
182.19,0.00388,66.54,,,,,,,
182.25,0.00383,59.88,,,,,,,
182.3,0.00378,53.69,,,,,,,
182.35,0.00373,47.41,,,,,,,
182.41,0.00368,41.2,,,,,,,
182.46,0.00363,34.72,,,,,,,
182.52,0.00358,28.7,,,,,,,
182.57,0.00353,22.78,,,,,,,
182.63,0.00348,16.22,,,,,,,
182.69,0.00343,9.97,,,,,,,
182.74,0.00338,3.79,,,,,,,
182.76,0.00336,1.47,,,,,,,
182.8,0.00333,-2.9,,,,,,,
182.86,0.00327,-9.08,,,,,,,
182.91,0.00322,-15.02,,,,,,,
182.97,0.00317,-19.69,,,,,,,
183.16,0.00312,-21.43,,,,,,,
183.24,0.00307,-26.64,,,,,,,
183.3,0.00302,-31.81,,,,,,,
183.36,0.00297,-37.42,,,,,,,
183.41,0.00292,-44.56,,,,,,,
183.44,0.00287,-51.36,,,,,,,
183.46,0.00282,-57.8,,,,,,,
183.49,0.00277,-64.44,,,,,,,
183.52,0.00272,-70.77,,,,,,,
183.55,0.00267,-77.18,,,,,,,
183.58,0.00262,-83.41,,,,,,,
183.6,0.00256,-88.64,,,,,,,
183.63,0.00251,-93.76,,,,,,,
183.66,0.00246,-98.82,,,,,,,
183.7,0.00241,-103.9,,,,,,,
183.74,0.00236,-109.0,,,,,,,
183.76,0.00234,-111.3,,,,,,,
183.78,0.00231,-113.3,,,,,,,
183.82,0.00226,-117.5,,,,,,,
183.87,0.00221,-121.7,,,,,,,
183.92,0.00216,-125.6,,,,,,,
183.97,0.00211,-129.8,,,,,,,
184.03,0.00206,-133.7,,,,,,,
184.08,0.00201,-137.6,,,,,,,
184.13,0.00196,-141.9,,,,,,,
184.19,0.00191,-146.1,,,,,,,
184.25,0.00186,-150.6,,,,,,,
184.3,0.00181,-155.0,,,,,,,
184.35,0.00176,-159.2,,,,,,,
184.4,0.00171,-163.6,,,,,,,
184.45,0.00166,-167.7,,,,,,,
184.5,0.0016,-171.6,,,,,,,
184.55,0.00155,-175.3,,,,,,,
184.59,0.0015,-178.8,,,,,,,
184.64,0.00145,-182.0,,,,,,,
184.69,0.0014,-185.2,,,,,,,
184.74,0.00135,-188.4,,,,,,,
184.76,0.00133,-189.6,,,,,,,
184.8,0.0013,-191.6,,,,,,,
184.85,0.00125,-194.8,,,,,,,
184.9,0.0012,-198.1,,,,,,,
184.95,0.00115,-201.3,,,,,,,
185.0,0.0011,-204.1,,,,,,,
185.04,0.00105,-206.8,,,,,,,
185.09,0.001,-209.5,,,,,,,
185.14,0.00095,-211.9,,,,,,,
185.15,0.0009,-211.2,,,,,,,
185.15,0.00084,-211.4,,,,,,,
185.16,0.00079,-211.5,,,,,,,
185.19,0.00074,-212.0,,,,,,,
185.39,0.00069,-203.5,,,,,,,
185.48,0.00064,-206.0,,,,,,,
185.54,0.00059,-209.9,,,,,,,
185.59,0.00054,-214.1,,,,,,,
185.64,0.00049,-218.2,,,,,,,
185.69,0.00044,-222.0,,,,,,,
185.72,0.00039,-222.1,,,,,,,
185.74,0.00034,-223.8,,,,,,,
185.76,0.00032,-225.2,,,,,,,
185.79,0.00029,-222.5,,,,,,,
185.79,0.00023,-222.7,,,,,,,
185.83,0.00018,-223.9,,,,,,,
185.92,0.00013,-223.5,,,,,,,
186.01,8e-05,-224.5,,,,,,,
186.08,3e-05,-227.1,,,,,,,
186.13,-2e-05,-230.2,,,,,,,
186.18,-7e-05,-233.3,,,,,,,
186.25,-0.00012,-235.5,,,,,,,
186.29,-0.00018,-231.7,,,,,,,
186.29,-0.00026,-232.0,,,,,,,
186.29,-0.00036,-232.1,,,,,,,
186.29,-0.00041,-232.2,,,,,,,
186.29,-0.00047,-232.2,,,,,,,
186.29,-0.00052,-232.2,,,,,,,
186.3,-0.00057,-232.3,,,,,,,
186.3,-0.00066,-232.6,,,,,,,
186.3,-0.00071,-232.6,,,,,,,
186.38,-0.00066,-220.3,,,,,,,
186.42,-0.00061,-210.3,,,,,,,
186.45,-0.00056,-200.8,,,,,,,
186.5,-0.00051,-191.8,,,,,,,
186.7,-0.00056,-192.8,,,,,,,
186.75,-0.00061,-198.6,,,,,,,
186.76,-0.00063,-200.3,,,,,,,
186.79,-0.00066,-203.8,,,,,,,
186.84,-0.00071,-208.9,,,,,,,
186.89,-0.00076,-214.4,,,,,,,
186.95,-0.00081,-219.8,,,,,,,
186.99,-0.00086,-224.4,,,,,,,
187.04,-0.00091,-228.5,,,,,,,
187.08,-0.00096,-232.5,,,,,,,
187.13,-0.00101,-236.4,,,,,,,
187.18,-0.00106,-240.0,,,,,,,
187.23,-0.00112,-243.4,,,,,,,
187.28,-0.00117,-246.7,,,,,,,
187.33,-0.00122,-249.8,,,,,,,
187.36,-0.00127,-241.1,,,,,,,
187.36,-0.00133,-241.2,,,,,,,
187.38,-0.00138,-242.7,,,,,,,
187.46,-0.00143,-243.5,,,,,,,
187.56,-0.00148,-244.0,,,,,,,
187.62,-0.00153,-246.0,,,,,,,
187.68,-0.00158,-248.7,,,,,,,
187.74,-0.00163,-251.6,,,,,,,
187.76,-0.00166,-253.2,,,,,,,
187.79,-0.00168,-254.6,,,,,,,
187.83,-0.00162,-244.1,,,,,,,
187.83,-0.00154,-244.1,,,,,,,
187.83,-0.00144,-244.2,,,,,,,
187.84,-0.00136,-244.5,,,,,,,
187.84,-0.00129,-244.5,,,,,,,
187.85,-0.00135,-245.7,,,,,,,
187.88,-0.0014,-249.9,,,,,,,
187.89,-0.00147,-251.8,,,,,,,
187.89,-0.00153,-252.3,,,,,,,
187.89,-0.00161,-253.0,,,,,,,
187.89,-0.0017,-253.7,,,,,,,
187.89,-0.00177,-254.2,,,,,,,
187.9,-0.00182,-254.5,,,,,,,
187.9,-0.00188,-251.3,,,,,,,
187.91,-0.00195,-252.4,,,,,,,
187.91,-0.00202,-253.0,,,,,,,
187.91,-0.00212,-253.6,,,,,,,
187.91,-0.00221,-254.1,,,,,,,
187.91,-0.00229,-254.7,,,,,,,
187.92,-0.00234,-255.5,,,,,,,
187.93,-0.0024,-254.9,,,,,,,
187.93,-0.00247,-255.1,,,,,,,
187.94,-0.00253,-255.2,,,,,,,
188.02,-0.00248,-231.3,,,,,,,
188.03,-0.00243,-222.6,,,,,,,
188.05,-0.00238,-213.7,,,,,,,
188.07,-0.00232,-204.9,,,,,,,
188.09,-0.00227,-197.0,,,,,,,
188.12,-0.00222,-189.4,,,,,,,
188.15,-0.00217,-181.9,,,,,,,
188.36,-0.00222,-189.4,,,,,,,
188.4,-0.00227,-196.1,,,,,,,
188.45,-0.00232,-202.8,,,,,,,
188.5,-0.00237,-209.3,,,,,,,
188.54,-0.00242,-215.3,,,,,,,
188.59,-0.00247,-220.8,,,,,,,
188.63,-0.00252,-226.1,,,,,,,
188.68,-0.00258,-231.0,,,,,,,
188.73,-0.00263,-235.5,,,,,,,
188.76,-0.00266,-238.7,,,,,,,
188.78,-0.00268,-240.0,,,,,,,
188.83,-0.00273,-244.3,,,,,,,
188.87,-0.00278,-247.9,,,,,,,
188.92,-0.00283,-251.3,,,,,,,
188.97,-0.00288,-254.6,,,,,,,
189.01,-0.00293,-257.5,,,,,,,
189.06,-0.00298,-260.2,,,,,,,
189.11,-0.00303,-262.6,,,,,,,
189.15,-0.00308,-264.9,,,,,,,
189.2,-0.00313,-258.2,,,,,,,
189.21,-0.00318,-259.0,,,,,,,
189.21,-0.00324,-259.2,,,,,,,
189.21,-0.00332,-259.2,,,,,,,
189.21,-0.00341,-259.2,,,,,,,
189.21,-0.00348,-259.3,,,,,,,
189.22,-0.00354,-259.5,,,,,,,
189.35,-0.00349,-236.0,,,,,,,
189.42,-0.00344,-225.4,,,,,,,
189.58,-0.00349,-223.8,,,,,,,
189.64,-0.00354,-227.9,,,,,,,
189.69,-0.00359,-232.5,,,,,,,
189.73,-0.00364,-236.7,,,,,,,
189.76,-0.00367,-239.4,,,,,,,
189.78,-0.00369,-240.8,,,,,,,
189.83,-0.00374,-245.2,,,,,,,
189.89,-0.00379,-249.4,,,,,,,
189.94,-0.00384,-253.1,,,,,,,
189.99,-0.00389,-256.8,,,,,,,
190.03,-0.00394,-260.2,,,,,,,
190.08,-0.00399,-263.7,,,,,,,
190.13,-0.00405,-266.5,,,,,,,
190.17,-0.0041,-269.0,,,,,,,
190.22,-0.00415,-271.1,,,,,,,
190.27,-0.0042,-273.3,,,,,,,
190.32,-0.00425,-275.3,,,,,,,
190.36,-0.0043,-276.9,,,,,,,
190.39,-0.00437,-262.6,,,,,,,
190.39,-0.00447,-262.4,,,,,,,
190.4,-0.00454,-262.7,,,,,,,
190.4,-0.00464,-262.8,,,,,,,
190.4,-0.00476,-262.7,,,,,,,
190.4,-0.00489,-262.7,,,,,,,
190.4,-0.00502,-262.6,,,,,,,
190.4,-0.00516,-262.5,,,,,,,
190.4,-0.00529,-262.6,,,,,,,
190.4,-0.0054,-262.7,,,,,,,
190.4,-0.0055,-262.9,,,,,,,
190.4,-0.00558,-262.9,,,,,,,
190.41,-0.00563,-262.8,,,,,,,
190.41,-0.00557,-262.9,,,,,,,
190.41,-0.00551,-262.7,,,,,,,
190.46,-0.00546,-240.6,,,,,,,
190.47,-0.00541,-230.2,,,,,,,
190.48,-0.00536,-221.5,,,,,,,
190.49,-0.00531,-213.5,,,,,,,
190.5,-0.00526,-205.5,,,,,,,
190.51,-0.0052,-196.7,,,,,,,
190.52,-0.00515,-189.0,,,,,,,
190.53,-0.0051,-181.5,,,,,,,
190.54,-0.00504,-173.7,,,,,,,
190.55,-0.00499,-166.3,,,,,,,
190.56,-0.00494,-158.8,,,,,,,
190.57,-0.00489,-151.4,,,,,,,
190.58,-0.00483,-144.3,,,,,,,
190.6,-0.00478,-137.0,,,,,,,
190.62,-0.00473,-130.3,,,,,,,
190.64,-0.00468,-123.8,,,,,,,
190.76,-0.00468,-125.9,,,,,,,
190.81,-0.00473,-132.8,,,,,,,
190.85,-0.00478,-139.8,,,,,,,
190.89,-0.00483,-146.3,,,,,,,
190.94,-0.00488,-152.7,,,,,,,
191.01,-0.00493,-158.1,,,,,,,
191.17,-0.00488,-146.9,,,,,,,
191.22,-0.00483,-138.3,,,,,,,
191.27,-0.00478,-130.2,,,,,,,
191.32,-0.00473,-122.0,,,,,,,
191.38,-0.00468,-114.0,,,,,,,
191.43,-0.00463,-106.2,,,,,,,
191.48,-0.00458,-98.46,,,,,,,
191.54,-0.00453,-90.88,,,,,,,
191.59,-0.00448,-83.33,,,,,,,
191.64,-0.00443,-76.29,,,,,,,
191.7,-0.00438,-69.37,,,,,,,
191.75,-0.00433,-62.44,,,,,,,
191.76,-0.00431,-60.81,,,,,,,
191.8,-0.00428,-55.97,,,,,,,
191.85,-0.00423,-49.61,,,,,,,
191.91,-0.00417,-42.84,,,,,,,
191.96,-0.00412,-36.28,,,,,,,
192.02,-0.00407,-29.75,,,,,,,
192.08,-0.00402,-23.17,,,,,,,
192.13,-0.00397,-16.22,,,,,,,
192.19,-0.00392,-9.54,,,,,,,
192.25,-0.00387,-2.98,,,,,,,
192.31,-0.00382,4.09,,,,,,,
192.36,-0.00377,11.07,,,,,,,
192.42,-0.00372,17.83,,,,,,,
192.48,-0.00367,24.69,,,,,,,
192.55,-0.00362,29.28,,,,,,,
192.63,-0.00357,34.86,,,,,,,
192.68,-0.00352,41.3,,,,,,,
192.72,-0.00347,47.32,,,,,,,
192.76,-0.00343,51.2,,,,,,,
192.78,-0.00342,52.54,,,,,,,
192.83,-0.00337,57.82,,,,,,,
192.89,-0.00332,62.0,,,,,,,
192.95,-0.00327,65.79,,,,,,,
193.02,-0.00322,70.7,,,,,,,
193.09,-0.00317,76.1,,,,,,,
193.15,-0.00312,81.09,,,,,,,
193.21,-0.00306,86.62,,,,,,,
193.26,-0.00301,92.72,,,,,,,
193.3,-0.00296,98.83,,,,,,,
193.33,-0.00291,104.6,,,,,,,
193.36,-0.00286,110.49,,,,,,,
193.39,-0.00281,115.94,,,,,,,
193.42,-0.00276,121.26,,,,,,,
193.45,-0.00271,126.64,,,,,,,
193.49,-0.00266,131.76,,,,,,,
193.53,-0.00261,136.4,,,,,,,
193.56,-0.00256,140.89,,,,,,,
193.6,-0.00251,145.13,,,,,,,
193.65,-0.00246,149.07,,,,,,,
193.69,-0.00241,152.73,,,,,,,
193.74,-0.00236,156.25,,,,,,,
193.76,-0.00233,157.92,,,,,,,
193.79,-0.00231,159.65,,,,,,,
193.84,-0.00226,163.06,,,,,,,
193.9,-0.00221,166.73,,,,,,,
193.95,-0.00215,170.38,,,,,,,
193.99,-0.0021,173.36,,,,,,,
194.05,-0.00205,177.19,,,,,,,
194.1,-0.002,180.48,,,,,,,
194.15,-0.00195,184.16,,,,,,,
194.21,-0.0019,187.59,,,,,,,
194.26,-0.00185,191.23,,,,,,,
194.3,-0.0018,194.58,,,,,,,
194.36,-0.00175,198.0,,,,,,,
194.42,-0.0017,202.15,,,,,,,
194.47,-0.00165,205.74,,,,,,,
194.51,-0.0016,206.92,,,,,,,
194.52,-0.00154,207.26,,,,,,,
194.52,-0.00148,207.43,,,,,,,
194.52,-0.00142,207.62,,,,,,,
194.57,-0.00137,208.36,,,,,,,
194.74,-0.00132,200.58,,,,,,,
194.76,-0.00131,200.48,,,,,,,
194.83,-0.00127,202.01,,,,,,,
194.89,-0.00122,205.3,,,,,,,
194.94,-0.00117,208.59,,,,,,,
194.99,-0.00112,212.03,,,,,,,
195.04,-0.00107,215.32,,,,,,,
195.08,-0.00102,218.23,,,,,,,
195.12,-0.00097,219.72,,,,,,,
195.14,-0.00091,221.04,,,,,,,
195.2,-0.00086,222.73,,,,,,,
195.24,-0.00081,220.04,,,,,,,
195.3,-0.00076,221.44,,,,,,,
195.38,-0.00071,223.48,,,,,,,
195.44,-0.00066,225.84,,,,,,,
195.49,-0.00061,228.19,,,,,,,
195.54,-0.00056,230.76,,,,,,,
195.59,-0.00051,233.28,,,,,,,
195.62,-0.00045,226.05,,,,,,,
195.62,-0.00037,226.42,,,,,,,
195.63,-0.00028,226.52,,,,,,,
195.63,-0.00019,226.48,,,,,,,
195.63,-0.00011,226.67,,,,,,,
195.63,-5e-05,226.85,,,,,,,
195.75,-0.0001,209.13,,,,,,,
195.76,-0.00012,205.08,,,,,,,
195.79,-0.00015,199.23,,,,,,,
376.03,0.00028,210.54,,,,,,,
376.05,0.00023,201.07,,,,,,,
376.07,0.00018,192.06,,,,,,,
376.1,0.00013,183.7,,,,,,,
376.13,7e-05,175.74,,,,,,,
376.34,0.00012,179.7,,,,,,,
376.38,0.00018,185.09,,,,,,,
376.42,0.00023,190.29,,,,,,,
376.46,0.00028,195.82,,,,,,,
376.51,0.00033,200.54,,,,,,,
376.56,0.00038,205.76,,,,,,,
376.61,0.00043,210.22,,,,,,,
376.66,0.00048,214.48,,,,,,,
376.71,0.00053,218.4,,,,,,,
376.76,0.00058,222.26,,,,,,,
376.82,0.00063,226.2,,,,,,,
376.86,0.00068,229.52,,,,,,,
376.91,0.00073,232.59,,,,,,,
376.96,0.00078,235.76,,,,,,,
377.01,0.00083,238.65,,,,,,,
377.06,0.00088,241.48,,,,,,,
377.11,0.00093,244.2,,,,,,,
377.15,0.00098,246.69,,,,,,,
377.2,0.00103,249.03,,,,,,,
377.25,0.00108,251.07,,,,,,,
377.31,0.00113,253.35,,,,,,,
377.36,0.00119,255.46,,,,,,,
377.4,0.00124,257.17,,,,,,,
377.43,0.0013,242.08,,,,,,,
377.43,0.00137,242.29,,,,,,,
377.43,0.00144,242.25,,,,,,,
377.43,0.0015,242.32,,,,,,,
377.44,0.00156,242.61,,,,,,,
377.76,0.00159,224.33,,,,,,,
377.78,0.00161,225.33,,,,,,,
377.83,0.00166,228.68,,,,,,,
377.87,0.00171,232.19,,,,,,,
377.92,0.00176,235.48,,,,,,,
377.97,0.00181,238.77,,,,,,,
378.02,0.00186,241.7,,,,,,,
378.07,0.00191,244.62,,,,,,,
378.12,0.00196,247.28,,,,,,,
378.17,0.00201,249.79,,,,,,,
378.22,0.00206,252.0,,,,,,,
378.27,0.00211,254.01,,,,,,,
378.32,0.00216,256.07,,,,,,,
378.37,0.00221,257.97,,,,,,,
378.42,0.00226,259.85,,,,,,,
378.47,0.00231,261.66,,,,,,,
378.52,0.00236,263.29,,,,,,,
378.56,0.00242,264.86,,,,,,,
378.61,0.00247,266.17,,,,,,,
378.66,0.00252,267.45,,,,,,,
378.71,0.00257,268.47,,,,,,,
378.75,0.00262,269.39,,,,,,,
378.76,0.00263,269.55,,,,,,,
378.8,0.00267,270.19,,,,,,,
378.85,0.00272,270.82,,,,,,,
378.9,0.00277,271.33,,,,,,,
378.95,0.00282,271.79,,,,,,,
378.96,0.0029,256.75,,,,,,,
378.96,0.00296,256.88,,,,,,,
378.96,0.00303,257.12,,,,,,,
378.96,0.00312,257.18,,,,,,,
378.96,0.00323,257.07,,,,,,,
378.96,0.00335,257.1,,,,,,,
378.96,0.00347,257.01,,,,,,,
378.96,0.00359,256.92,,,,,,,
378.96,0.00371,256.95,,,,,,,
378.97,0.00381,257.0,,,,,,,
378.97,0.00389,257.13,,,,,,,
378.97,0.00396,257.18,,,,,,,
378.97,0.00403,257.03,,,,,,,
378.97,0.00395,256.92,,,,,,,
378.98,0.00389,256.86,,,,,,,
378.98,0.00383,256.43,,,,,,,
378.99,0.00388,254.61,,,,,,,
379.02,0.00383,237.73,,,,,,,
379.03,0.00377,226.94,,,,,,,
379.04,0.00372,218.05,,,,,,,
379.05,0.00367,209.75,,,,,,,
379.06,0.00362,201.4,,,,,,,
379.07,0.00356,193.14,,,,,,,
379.08,0.00351,185.21,,,,,,,
379.09,0.00346,177.58,,,,,,,
379.1,0.0034,170.27,,,,,,,
379.11,0.00335,162.9,,,,,,,
379.12,0.0033,155.66,,,,,,,
379.14,0.00325,148.76,,,,,,,
379.15,0.00319,141.85,,,,,,,
379.17,0.00314,135.41,,,,,,,
379.19,0.00309,129.37,,,,,,,
379.34,0.00314,140.71,,,,,,,
379.38,0.00319,147.69,,,,,,,
379.42,0.00324,155.01,,,,,,,
379.46,0.0033,162.14,,,,,,,
379.5,0.00335,169.02,,,,,,,
379.55,0.0034,175.52,,,,,,,
379.6,0.00345,181.88,,,,,,,
379.65,0.0035,187.67,,,,,,,
379.7,0.00355,193.63,,,,,,,
379.75,0.0036,199.21,,,,,,,
379.76,0.00361,200.1,,,,,,,
379.81,0.00365,204.95,,,,,,,
379.86,0.0037,210.05,,,,,,,
379.91,0.00375,215.35,,,,,,,
379.96,0.0038,220.32,,,,,,,
380.01,0.00385,224.98,,,,,,,
380.06,0.0039,229.47,,,,,,,
380.11,0.00395,233.53,,,,,,,
380.16,0.004,237.48,,,,,,,
380.21,0.00405,241.31,,,,,,,
380.25,0.0041,244.78,,,,,,,
380.3,0.00415,247.85,,,,,,,
380.35,0.0042,250.99,,,,,,,
380.4,0.00425,253.68,,,,,,,
380.44,0.00431,256.15,,,,,,,
380.49,0.00436,258.4,,,,,,,
380.54,0.00441,260.48,,,,,,,
380.59,0.00446,262.33,,,,,,,
380.64,0.00451,264.08,,,,,,,
380.69,0.00456,265.64,,,,,,,
380.73,0.00461,267.19,,,,,,,
380.76,0.00464,268.01,,,,,,,
380.78,0.00466,268.34,,,,,,,
380.83,0.00471,269.37,,,,,,,
380.88,0.00476,270.26,,,,,,,
380.92,0.00481,271.1,,,,,,,
380.97,0.00486,271.83,,,,,,,
381.02,0.00491,272.24,,,,,,,
381.1,0.00496,268.74,,,,,,,
381.21,0.00491,247.2,,,,,,,
381.26,0.00486,235.86,,,,,,,
381.3,0.00481,225.54,,,,,,,
381.35,0.00476,216.0,,,,,,,
381.39,0.00471,207.26,,,,,,,
381.43,0.00466,198.64,,,,,,,
381.48,0.00461,190.31,,,,,,,
381.53,0.00456,182.25,,,,,,,
381.58,0.00451,173.96,,,,,,,
381.63,0.00446,166.19,,,,,,,
381.69,0.0044,158.65,,,,,,,
381.74,0.00435,151.18,,,,,,,
381.76,0.00433,148.02,,,,,,,
381.79,0.0043,143.67,,,,,,,
381.86,0.00425,135.49,,,,,,,
381.91,0.0042,128.15,,,,,,,
381.96,0.00415,121.36,,,,,,,
382.01,0.0041,114.69,,,,,,,
382.06,0.00405,107.61,,,,,,,
382.12,0.004,100.57,,,,,,,
382.17,0.00395,93.59,,,,,,,
382.23,0.0039,86.3,,,,,,,
382.29,0.00385,79.08,,,,,,,
382.34,0.0038,72.28,,,,,,,
382.4,0.00375,65.22,,,,,,,
382.45,0.0037,58.24,,,,,,,
382.5,0.00365,51.81,,,,,,,
382.56,0.0036,45.21,,,,,,,
382.61,0.00355,38.98,,,,,,,
382.67,0.00349,32.16,,,,,,,
382.73,0.00344,25.21,,,,,,,
382.76,0.00341,21.23,,,,,,,
382.78,0.00339,18.76,,,,,,,
382.83,0.00334,12.78,,,,,,,
382.88,0.00329,7.34,,,,,,,
382.94,0.00324,1.07,,,,,,,
382.99,0.00319,-4.92,,,,,,,
383.05,0.00314,-10.64,,,,,,,
383.1,0.00309,-16.44,,,,,,,
383.19,0.00304,-20.73,,,,,,,
383.36,0.00299,-24.01,,,,,,,
383.43,0.00294,-29.16,,,,,,,
383.49,0.00289,-34.97,,,,,,,
383.55,0.00284,-41.42,,,,,,,
383.58,0.00279,-48.9,,,,,,,
383.61,0.00274,-55.31,,,,,,,
383.63,0.00269,-62.04,,,,,,,
383.66,0.00264,-68.58,,,,,,,
383.69,0.00259,-74.76,,,,,,,
383.71,0.00254,-80.85,,,,,,,
383.74,0.00249,-86.56,,,,,,,
383.76,0.00245,-90.16,,,,,,,
383.77,0.00244,-92.06,,,,,,,
383.81,0.00238,-97.66,,,,,,,
383.84,0.00233,-102.5,,,,,,,
383.88,0.00228,-107.2,,,,,,,
383.92,0.00223,-111.8,,,,,,,
383.96,0.00218,-115.7,,,,,,,
384.01,0.00213,-119.7,,,,,,,
384.06,0.00208,-123.4,,,,,,,
384.11,0.00203,-126.9,,,,,,,
384.16,0.00198,-130.6,,,,,,,
384.21,0.00193,-134.2,,,,,,,
384.27,0.00188,-137.9,,,,,,,
384.32,0.00183,-141.6,,,,,,,
384.37,0.00178,-145.1,,,,,,,
384.42,0.00173,-148.5,,,,,,,
384.47,0.00168,-151.9,,,,,,,
384.53,0.00163,-155.4,,,,,,,
384.58,0.00158,-159.0,,,,,,,
384.63,0.00153,-162.5,,,,,,,
384.68,0.00148,-165.9,,,,,,,
384.73,0.00142,-169.3,,,,,,,
384.76,0.00139,-171.4,,,,,,,
384.78,0.00137,-172.6,,,,,,,
384.84,0.00132,-176.0,,,,,,,
384.89,0.00127,-179.6,,,,,,,
384.94,0.00122,-183.2,,,,,,,
384.99,0.00117,-186.5,,,,,,,
385.05,0.00112,-190.2,,,,,,,
385.1,0.00107,-193.7,,,,,,,
385.15,0.00102,-197.1,,,,,,,
385.19,0.00097,-200.1,,,,,,,
385.24,0.00092,-202.8,,,,,,,
385.29,0.00087,-205.5,,,,,,,
385.33,0.00082,-208.1,,,,,,,
385.39,0.00077,-210.7,,,,,,,
385.44,0.00072,-213.1,,,,,,,
385.49,0.00067,-215.7,,,,,,,
385.54,0.00062,-218.1,,,,,,,
385.59,0.00057,-220.3,,,,,,,
385.63,0.00052,-222.3,,,,,,,
385.69,0.00046,-224.3,,,,,,,
385.74,0.00041,-226.4,,,,,,,
385.76,0.00039,-227.4,,,,,,,
385.79,0.00036,-228.4,,,,,,,
385.83,0.00031,-230.2,,,,,,,
385.88,0.00026,-231.8,,,,,,,
385.93,0.00021,-233.4,,,,,,,
385.98,0.00016,-234.8,,,,,,,
386.03,0.00011,-236.1,,,,,,,
386.08,6e-05,-237.4,,,,,,,
386.13,1e-05,-238.8,,,,,,,
386.18,-4e-05,-240.0,,,,,,,
386.2,-0.00011,-230.9,,,,,,,
386.2,-0.00016,-231.1,,,,,,,
386.2,-0.00024,-231.2,,,,,,,
386.2,-0.00032,-231.1,,,,,,,
386.21,-0.00039,-231.2,,,,,,,
386.21,-0.00045,-231.3,,,,,,,
386.31,-0.0004,-211.7,,,,,,,
386.35,-0.00035,-201.9,,,,,,,
386.4,-0.0003,-192.3,,,,,,,
386.58,-0.00035,-195.8,,,,,,,
386.62,-0.0004,-201.6,,,,,,,
386.67,-0.00045,-207.2,,,,,,,
386.71,-0.0005,-212.3,,,,,,,
386.75,-0.00055,-217.4,,,,,,,
386.76,-0.00056,-218.3,,,,,,,
386.8,-0.0006,-222.0,,,,,,,
386.84,-0.00065,-225.8,,,,,,,
386.88,-0.0007,-229.1,,,,,,,
386.93,-0.00075,-232.4,,,,,,,
386.98,-0.0008,-235.4,,,,,,,
387.03,-0.00086,-238.4,,,,,,,
387.09,-0.00091,-241.7,,,,,,,
387.14,-0.00096,-244.6,,,,,,,
387.19,-0.00101,-247.6,,,,,,,
387.24,-0.00106,-250.5,,,,,,,
387.29,-0.00111,-253.3,,,,,,,
387.33,-0.00116,-255.6,,,,,,,
387.38,-0.00121,-258.0,,,,,,,
387.43,-0.00126,-260.0,,,,,,,
387.48,-0.00131,-261.9,,,,,,,
387.52,-0.00136,-247.3,,,,,,,
387.53,-0.00143,-249.1,,,,,,,
387.53,-0.00149,-249.1,,,,,,,
387.53,-0.00157,-249.1,,,,,,,
387.53,-0.00165,-249.1,,,,,,,
387.53,-0.00171,-249.3,,,,,,,
387.54,-0.00177,-249.3,,,,,,,
387.64,-0.00172,-230.9,,,,,,,
387.69,-0.00167,-220.2,,,,,,,
387.76,-0.00164,-211.8,,,,,,,
387.92,-0.00172,-216.5,,,,,,,
387.97,-0.00177,-221.4,,,,,,,
388.02,-0.00183,-226.3,,,,,,,
388.06,-0.00188,-231.1,,,,,,,
388.11,-0.00193,-235.3,,,,,,,
388.16,-0.00198,-239.3,,,,,,,
388.21,-0.00203,-243.6,,,,,,,
388.26,-0.00208,-247.3,,,,,,,
388.31,-0.00213,-250.6,,,,,,,
388.35,-0.00218,-253.6,,,,,,,
388.4,-0.00223,-256.5,,,,,,,
388.45,-0.00228,-259.1,,,,,,,
388.5,-0.00233,-261.6,,,,,,,
388.55,-0.00238,-263.8,,,,,,,
388.59,-0.00243,-265.7,,,,,,,
388.62,-0.00248,-251.6,,,,,,,
388.62,-0.00257,-251.5,,,,,,,
388.62,-0.00263,-251.7,,,,,,,
388.62,-0.00269,-251.6,,,,,,,
388.62,-0.00275,-251.7,,,,,,,
388.62,-0.00282,-251.6,,,,,,,
388.62,-0.00289,-251.5,,,,,,,
388.62,-0.00295,-251.6,,,,,,,
388.63,-0.00301,-251.6,,,,,,,
388.63,-0.00309,-251.9,,,,,,,
388.64,-0.00304,-252.0,,,,,,,
388.71,-0.00298,-229.4,,,,,,,
388.73,-0.00293,-220.1,,,,,,,
388.76,-0.00288,-211.3,,,,,,,
388.76,-0.00287,-208.8,,,,,,,
388.78,-0.00283,-203.3,,,,,,,
388.81,-0.00278,-195.5,,,,,,,
388.85,-0.00273,-188.0,,,,,,,
388.99,-0.00278,-194.0,,,,,,,
389.04,-0.00283,-200.9,,,,,,,
389.08,-0.00288,-206.9,,,,,,,
389.12,-0.00293,-212.8,,,,,,,
389.16,-0.00298,-218.2,,,,,,,
389.21,-0.00304,-223.5,,,,,,,
389.25,-0.00309,-228.2,,,,,,,
389.31,-0.00314,-233.0,,,,,,,
389.35,-0.00319,-237.3,,,,,,,
389.4,-0.00324,-241.1,,,,,,,
389.45,-0.00329,-244.5,,,,,,,
389.49,-0.00334,-247.7,,,,,,,
389.54,-0.00339,-250.7,,,,,,,
389.59,-0.00344,-253.7,,,,,,,
389.65,-0.00349,-256.8,,,,,,,
389.69,-0.00354,-259.5,,,,,,,
389.74,-0.00359,-262.1,,,,,,,
389.76,-0.00362,-263.3,,,,,,,
389.79,-0.00364,-264.4,,,,,,,
389.84,-0.00369,-266.5,,,,,,,
389.89,-0.00374,-268.5,,,,,,,
389.93,-0.00379,-270.2,,,,,,,
389.98,-0.00384,-271.8,,,,,,,
390.03,-0.00389,-273.3,,,,,,,
390.07,-0.00394,-274.7,,,,,,,
390.12,-0.00399,-275.8,,,,,,,
390.2,-0.00404,-275.0,,,,,,,
390.24,-0.0041,-276.8,,,,,,,
390.29,-0.00415,-278.6,,,,,,,
390.3,-0.00422,-265.6,,,,,,,
390.3,-0.00433,-265.9,,,,,,,
390.3,-0.00441,-266.0,,,,,,,
390.3,-0.00451,-265.9,,,,,,,
390.3,-0.00462,-266.0,,,,,,,
390.3,-0.00474,-265.9,,,,,,,
390.3,-0.00485,-265.8,,,,,,,
390.3,-0.00496,-265.9,,,,,,,
390.3,-0.00506,-265.9,,,,,,,
390.31,-0.00515,-266.0,,,,,,,
390.31,-0.00522,-266.2,,,,,,,
390.31,-0.0053,-266.0,,,,,,,
390.31,-0.00525,-266.0,,,,,,,
390.32,-0.00519,-266.1,,,,,,,
390.32,-0.00513,-265.7,,,,,,,
390.33,-0.00519,-263.9,,,,,,,
390.35,-0.00514,-250.4,,,,,,,
390.37,-0.00509,-238.8,,,,,,,
390.38,-0.00504,-230.9,,,,,,,
390.39,-0.00499,-221.7,,,,,,,
390.4,-0.00493,-212.5,,,,,,,
390.41,-0.00488,-205.1,,,,,,,
390.42,-0.00483,-197.3,,,,,,,
390.43,-0.00477,-188.9,,,,,,,
390.44,-0.00472,-181.7,,,,,,,
390.45,-0.00467,-173.9,,,,,,,
390.46,-0.00462,-166.8,,,,,,,
390.48,-0.00457,-159.8,,,,,,,
390.49,-0.00451,-152.7,,,,,,,
390.51,-0.00446,-146.0,,,,,,,
390.55,-0.00441,-140.1,,,,,,,
390.66,-0.00446,-148.5,,,,,,,
390.69,-0.00451,-155.6,,,,,,,
390.73,-0.00456,-162.3,,,,,,,
390.76,-0.00461,-168.2,,,,,,,
390.76,-0.00461,-168.5,,,,,,,
390.81,-0.00466,-175.0,,,,,,,
390.85,-0.00471,-181.7,,,,,,,
390.9,-0.00476,-187.8,,,,,,,
390.96,-0.00482,-193.7,,,,,,,
391.01,-0.00487,-199.3,,,,,,,
391.09,-0.00492,-203.5,,,,,,,
391.25,-0.00487,-187.2,,,,,,,
391.29,-0.00481,-179.3,,,,,,,
391.34,-0.00476,-170.8,,,,,,,
391.39,-0.00471,-162.4,,,,,,,
391.43,-0.00466,-154.4,,,,,,,
391.48,-0.00461,-146.7,,,,,,,
391.54,-0.00456,-138.7,,,,,,,
391.59,-0.00451,-131.1,,,,,,,
391.64,-0.00446,-123.7,,,,,,,
391.7,-0.00441,-116.0,,,,,,,
391.76,-0.00436,-108.7,,,,,,,
391.76,-0.00435,-107.8,,,,,,,
391.81,-0.00431,-101.6,,,,,,,
391.86,-0.00426,-94.6,,,,,,,
391.91,-0.00421,-88.04,,,,,,,
391.97,-0.00416,-80.45,,,,,,,
392.03,-0.00411,-73.02,,,,,,,
392.09,-0.00406,-65.55,,,,,,,
392.14,-0.00401,-58.06,,,,,,,
392.19,-0.00396,-51.33,,,,,,,
392.24,-0.00391,-44.81,,,,,,,
392.29,-0.00386,-38.77,,,,,,,
392.34,-0.00381,-32.53,,,,,,,
392.4,-0.00376,-25.96,,,,,,,
392.46,-0.00371,-19.89,,,,,,,
392.51,-0.00366,-13.7,,,,,,,
392.56,-0.00361,-7.62,,,,,,,
392.62,-0.00355,-0.82,,,,,,,
392.68,-0.0035,5.32,,,,,,,
392.73,-0.00345,10.71,,,,,,,
392.76,-0.00342,14.71,,,,,,,
392.78,-0.0034,16.22,,,,,,,
392.84,-0.00335,22.41,,,,,,,
392.91,-0.0033,26.86,,,,,,,
392.98,-0.00325,31.06,,,,,,,
393.04,-0.0032,36.83,,,,,,,
393.08,-0.00315,42.98,,,,,,,
393.13,-0.0031,47.69,,,,,,,
393.18,-0.00305,52.31,,,,,,,
393.25,-0.003,56.68,,,,,,,
393.32,-0.00295,61.57,,,,,,,
393.38,-0.0029,66.45,,,,,,,
393.45,-0.00285,71.45,,,,,,,
393.5,-0.0028,76.26,,,,,,,
393.56,-0.00275,81.14,,,,,,,
393.62,-0.0027,85.97,,,,,,,
393.67,-0.00265,91.69,,,,,,,
393.7,-0.0026,97.38,,,,,,,
393.74,-0.00255,103.19,,,,,,,
393.76,-0.0025,107.87,,,,,,,
393.77,-0.0025,108.37,,,,,,,
393.8,-0.00245,113.67,,,,,,,
393.83,-0.00239,118.96,,,,,,,
393.87,-0.00234,124.04,,,,,,,
393.91,-0.00229,128.85,,,,,,,
393.94,-0.00224,133.34,,,,,,,
393.98,-0.00219,137.44,,,,,,,
394.02,-0.00214,141.27,,,,,,,
394.07,-0.00209,145.03,,,,,,,
394.13,-0.00204,148.9,,,,,,,
394.17,-0.00199,152.44,,,,,,,
394.23,-0.00194,156.2,,,,,,,
394.28,-0.00189,159.9,,,,,,,
394.33,-0.00184,163.3,,,,,,,
394.38,-0.00179,166.86,,,,,,,
394.43,-0.00174,170.38,,,,,,,
394.48,-0.00169,173.6,,,,,,,
394.53,-0.00164,176.58,,,,,,,
394.58,-0.00158,179.52,,,,,,,
394.62,-0.00153,182.31,,,,,,,
394.67,-0.00148,185.12,,,,,,,
394.73,-0.00143,187.96,,,,,,,
394.76,-0.0014,189.78,,,,,,,
394.78,-0.00138,190.7,,,,,,,
394.83,-0.00133,193.42,,,,,,,
394.88,-0.00128,196.13,,,,,,,
394.94,-0.00123,199.44,,,,,,,
394.99,-0.00118,202.29,,,,,,,
395.04,-0.00113,205.01,,,,,,,
395.09,-0.00108,207.82,,,,,,,
395.14,-0.00103,210.98,,,,,,,
395.19,-0.00098,213.86,,,,,,,
395.24,-0.00093,214.91,,,,,,,
395.25,-0.00088,214.51,,,,,,,
395.25,-0.00082,214.63,,,,,,,
395.26,-0.00077,214.8,,,,,,,
395.29,-0.00072,215.41,,,,,,,
395.48,-0.00067,207.43,,,,,,,
395.56,-0.00062,209.33,,,,,,,
395.61,-0.00057,212.59,,,,,,,
395.66,-0.00052,215.91,,,,,,,
395.72,-0.00047,219.45,,,,,,,
395.76,-0.00042,222.65,,,,,,,
395.76,-0.00042,222.79,,,,,,,
395.81,-0.00037,225.83,,,,,,,
395.86,-0.00031,228.79,,,,,,,
395.91,-0.00026,231.52,,,,,,,
395.96,-0.00021,234.39,,,,,,,
976.33,-0.00015,169.28,,,,,,,
976.38,-0.0001,174.79,,,,,,,
976.43,-5e-05,181.04,,,,,,,
976.48,0.0,186.93,,,,,,,
976.53,5e-05,192.45,,,,,,,
976.58,0.0001,197.9,,,,,,,
976.63,0.00015,203.35,,,,,,,
976.68,0.0002,208.29,,,,,,,
976.73,0.00025,213.04,,,,,,,
976.76,0.00029,215.8,,,,,,,
976.78,0.0003,217.09,,,,,,,
976.83,0.00035,221.32,,,,,,,
976.87,0.0004,224.96,,,,,,,
976.93,0.00045,228.84,,,,,,,
976.98,0.0005,232.5,,,,,,,
977.03,0.00056,236.05,,,,,,,
977.07,0.00061,238.89,,,,,,,
977.12,0.00066,241.62,,,,,,,
977.16,0.00071,244.44,,,,,,,
977.21,0.00076,246.66,,,,,,,
977.25,0.00081,248.7,,,,,,,
977.3,0.00086,250.55,,,,,,,
977.35,0.00091,252.14,,,,,,,
977.38,0.00097,240.83,,,,,,,
977.39,0.00102,240.69,,,,,,,
977.39,0.00111,240.94,,,,,,,
977.39,0.00117,240.84,,,,,,,
977.39,0.00124,240.91,,,,,,,
977.39,0.00131,240.85,,,,,,,
977.39,0.00138,240.76,,,,,,,
977.39,0.00144,240.85,,,,,,,
977.39,0.00149,240.9,,,,,,,
977.4,0.00157,241.09,,,,,,,
977.4,0.00151,241.22,,,,,,,
977.48,0.00146,224.65,,,,,,,
977.51,0.00141,213.83,,,,,,,
977.54,0.00136,204.45,,,,,,,
977.58,0.00131,195.88,,,,,,,
977.64,0.00126,186.87,,,,,,,
977.76,0.00129,189.66,,,,,,,
977.78,0.00131,191.22,,,,,,,
977.83,0.00136,196.74,,,,,,,
977.88,0.00141,202.43,,,,,,,
977.93,0.00146,207.98,,,,,,,
977.98,0.00151,213.23,,,,,,,
978.03,0.00156,218.34,,,,,,,
978.07,0.00161,223.15,,,,,,,
978.12,0.00166,227.83,,,,,,,
978.17,0.00171,232.1,,,,,,,
978.22,0.00176,236.37,,,,,,,
978.27,0.00181,240.32,,,,,,,
978.32,0.00186,243.99,,,,,,,
978.37,0.00191,247.47,,,,,,,
978.42,0.00196,250.65,,,,,,,
978.46,0.00201,253.68,,,,,,,
978.51,0.00206,256.37,,,,,,,
978.55,0.00211,258.68,,,,,,,
978.6,0.00216,260.71,,,,,,,
978.65,0.00221,262.52,,,,,,,
978.7,0.00227,264.27,,,,,,,
978.74,0.00232,265.69,,,,,,,
978.76,0.00234,266.24,,,,,,,
978.79,0.00237,267.03,,,,,,,
978.8,0.00243,246.09,,,,,,,
978.8,0.0025,246.57,,,,,,,
978.8,0.0026,246.43,,,,,,,
978.8,0.00265,246.38,,,,,,,
978.81,0.0027,246.2,,,,,,,
978.81,0.00279,246.4,,,,,,,
978.81,0.00285,246.67,,,,,,,
978.91,0.0028,227.61,,,,,,,
978.95,0.00275,217.75,,,,,,,
979.0,0.0027,208.65,,,,,,,
979.21,0.00275,209.68,,,,,,,
979.26,0.0028,214.7,,,,,,,
979.3,0.00285,219.48,,,,,,,
979.34,0.0029,224.05,,,,,,,
979.39,0.00295,227.96,,,,,,,
979.43,0.00301,231.58,,,,,,,
979.48,0.00306,235.2,,,,,,,
979.53,0.00311,238.66,,,,,,,
979.58,0.00316,241.85,,,,,,,
979.63,0.00321,244.88,,,,,,,
979.68,0.00326,247.88,,,,,,,
979.73,0.00331,250.63,,,,,,,
979.76,0.00334,252.11,,,,,,,
979.79,0.00336,253.27,,,,,,,
979.83,0.00341,255.64,,,,,,,
979.88,0.00346,258.01,,,,,,,
979.93,0.00351,260.08,,,,,,,
979.98,0.00356,262.08,,,,,,,
980.02,0.00361,263.73,,,,,,,
980.07,0.00366,265.3,,,,,,,
980.12,0.00371,266.74,,,,,,,
980.17,0.00376,268.08,,,,,,,
980.22,0.00381,269.29,,,,,,,
980.26,0.00387,270.23,,,,,,,
980.31,0.00392,258.09,,,,,,,
980.38,0.00397,260.99,,,,,,,
980.43,0.00402,262.97,,,,,,,
980.47,0.00407,264.79,,,,,,,
980.51,0.00412,266.07,,,,,,,
980.56,0.00417,267.29,,,,,,,
980.61,0.00422,268.13,,,,,,,
980.66,0.00427,268.84,,,,,,,
980.71,0.00432,269.54,,,,,,,
980.76,0.00437,270.07,,,,,,,
980.76,0.00438,270.16,,,,,,,
980.81,0.00442,270.72,,,,,,,
980.86,0.00447,271.4,,,,,,,
980.91,0.00452,271.95,,,,,,,
980.96,0.00457,272.44,,,,,,,
981.0,0.00462,272.87,,,,,,,
981.05,0.00467,273.33,,,,,,,
981.07,0.00473,269.0,,,,,,,
981.08,0.0048,269.04,,,,,,,
981.08,0.00487,269.09,,,,,,,
981.08,0.00493,269.04,,,,,,,
981.08,0.00498,269.08,,,,,,,
981.43,0.00493,223.21,,,,,,,
981.5,0.00488,211.61,,,,,,,
981.56,0.00483,201.89,,,,,,,
981.61,0.00478,192.68,,,,,,,
981.66,0.00473,183.56,,,,,,,
981.71,0.00468,174.74,,,,,,,
981.76,0.00463,166.62,,,,,,,
981.81,0.00458,158.54,,,,,,,
981.87,0.00453,150.72,,,,,,,
981.92,0.00448,142.92,,,,,,,
981.97,0.00443,135.26,,,,,,,
982.02,0.00438,128.07,,,,,,,
982.08,0.00433,120.49,,,,,,,
982.14,0.00428,112.47,,,,,,,
982.19,0.00423,105.31,,,,,,,
982.25,0.00418,98.04,,,,,,,
982.3,0.00413,90.68,,,,,,,
982.35,0.00407,83.8,,,,,,,
982.41,0.00402,77.14,,,,,,,
982.46,0.00397,70.25,,,,,,,
982.51,0.00392,63.27,,,,,,,
982.57,0.00387,56.38,,,,,,,
982.63,0.00382,49.45,,,,,,,
982.68,0.00377,42.97,,,,,,,
982.74,0.00372,36.3,,,,,,,
982.76,0.0037,33.14,,,,,,,
982.79,0.00367,29.66,,,,,,,
982.85,0.00362,23.25,,,,,,,
982.9,0.00357,17.16,,,,,,,
982.95,0.00352,11.1,,,,,,,
983.0,0.00347,4.94,,,,,,,
983.06,0.00342,-1.31,,,,,,,
983.12,0.00337,-7.66,,,,,,,
983.17,0.00332,-13.67,,,,,,,
983.24,0.00327,-19.46,,,,,,,
983.42,0.00322,-21.03,,,,,,,
983.51,0.00317,-25.99,,,,,,,
983.58,0.00312,-31.56,,,,,,,
983.64,0.00307,-37.63,,,,,,,
983.69,0.00302,-44.07,,,,,,,
983.72,0.00296,-51.12,,,,,,,
983.74,0.00291,-57.41,,,,,,,
983.76,0.00286,-63.86,,,,,,,
983.76,0.00286,-64.13,,,,,,,
983.79,0.00281,-69.98,,,,,,,
983.81,0.00276,-76.06,,,,,,,
983.84,0.00271,-81.97,,,,,,,
983.87,0.00266,-87.65,,,,,,,
983.9,0.00261,-93.2,,,,,,,
983.93,0.00256,-98.55,,,,,,,
983.97,0.00251,-103.2,,,,,,,
984.0,0.00246,-107.9,,,,,,,
984.04,0.00241,-112.2,,,,,,,
984.08,0.00236,-115.9,,,,,,,
984.13,0.0023,-119.6,,,,,,,
984.17,0.00225,-123.1,,,,,,,
984.23,0.0022,-126.8,,,,,,,
984.28,0.00215,-130.2,,,,,,,
984.33,0.0021,-133.6,,,,,,,
984.39,0.00205,-137.2,,,,,,,
984.44,0.002,-140.8,,,,,,,
984.49,0.00195,-144.2,,,,,,,
984.55,0.0019,-148.0,,,,,,,
984.6,0.00185,-151.7,,,,,,,
984.65,0.0018,-155.2,,,,,,,
984.7,0.00175,-158.7,,,,,,,
984.75,0.0017,-162.3,,,,,,,
984.76,0.00169,-163.2,,,,,,,
984.8,0.00165,-165.9,,,,,,,
984.85,0.0016,-169.1,,,,,,,
984.9,0.00155,-172.2,,,,,,,
984.95,0.0015,-175.5,,,,,,,
985.0,0.00145,-178.6,,,,,,,
985.05,0.0014,-181.8,,,,,,,
985.1,0.00135,-184.9,,,,,,,
985.16,0.0013,-188.0,,,,,,,
985.2,0.00125,-190.8,,,,,,,
985.25,0.0012,-193.8,,,,,,,
985.3,0.00114,-196.6,,,,,,,
985.36,0.00109,-199.7,,,,,,,
985.41,0.00104,-202.5,,,,,,,
985.46,0.00099,-205.1,,,,,,,
985.51,0.00094,-208.0,,,,,,,
985.56,0.00089,-210.6,,,,,,,
985.61,0.00084,-213.1,,,,,,,
985.66,0.00079,-215.6,,,,,,,
985.7,0.00074,-217.9,,,,,,,
985.75,0.00069,-220.0,,,,,,,
985.76,0.00067,-220.6,,,,,,,
985.8,0.00064,-221.8,,,,,,,
985.85,0.00059,-221.1,,,,,,,
985.87,0.00053,-221.8,,,,,,,
985.92,0.00048,-223.1,,,,,,,
985.98,0.00043,-224.2,,,,,,,
986.04,0.00038,-225.3,,,,,,,
986.1,0.00033,-226.7,,,,,,,
986.16,0.00028,-228.4,,,,,,,
986.21,0.00023,-230.4,,,,,,,
986.27,0.00018,-232.8,,,,,,,
986.32,0.00013,-235.1,,,,,,,
986.37,8e-05,-237.4,,,,,,,
986.4,3e-05,-229.6,,,,,,,
986.4,-6e-05,-229.6,,,,,,,
986.4,-0.00015,-229.5,,,,,,,
986.4,-0.00025,-229.5,,,,,,,
986.41,-0.00034,-229.6,,,,,,,
986.41,-0.0004,-229.8,,,,,,,
986.52,-0.00035,-210.7,,,,,,,
986.56,-0.0003,-200.6,,,,,,,
986.63,-0.00025,-189.9,,,,,,,
986.76,-0.00027,-190.1,,,,,,,
986.8,-0.0003,-193.4,,,,,,,
986.86,-0.00035,-199.6,,,,,,,
986.9,-0.0004,-205.3,,,,,,,
986.95,-0.00045,-210.8,,,,,,,
987.0,-0.0005,-216.5,,,,,,,
987.05,-0.00055,-221.9,,,,,,,
987.1,-0.0006,-226.9,,,,,,,
987.15,-0.00065,-231.5,,,,,,,
987.19,-0.0007,-235.3,,,,,,,
987.23,-0.00075,-238.8,,,,,,,
987.27,-0.0008,-241.8,,,,,,,
987.32,-0.00085,-244.5,,,,,,,
987.36,-0.00091,-246.8,,,,,,,
987.41,-0.00096,-248.9,,,,,,,
987.45,-0.00101,-250.8,,,,,,,
987.5,-0.00106,-252.7,,,,,,,
987.55,-0.00111,-254.1,,,,,,,
987.59,-0.00116,-255.4,,,,,,,
987.63,-0.00121,-242.2,,,,,,,
987.63,-0.00127,-242.3,,,,,,,
987.63,-0.00133,-242.2,,,,,,,
987.63,-0.0014,-242.2,,,,,,,
987.63,-0.00147,-242.2,,,,,,,
987.64,-0.00153,-242.4,,,,,,,
987.76,-0.00152,-226.1,,,,,,,
987.84,-0.00148,-215.4,,,,,,,
988.0,-0.00153,-216.1,,,,,,,
988.05,-0.00158,-220.4,,,,,,,
988.1,-0.00163,-225.1,,,,,,,
988.15,-0.00168,-229.3,,,,,,,
988.2,-0.00173,-233.4,,,,,,,
988.24,-0.00178,-237.0,,,,,,,
988.29,-0.00183,-240.5,,,,,,,
988.34,-0.00188,-244.0,,,,,,,
988.39,-0.00193,-247.1,,,,,,,
988.43,-0.00198,-250.0,,,,,,,
988.48,-0.00203,-252.8,,,,,,,
988.53,-0.00208,-255.2,,,,,,,
988.57,-0.00213,-257.3,,,,,,,
988.62,-0.00219,-259.2,,,,,,,
988.67,-0.00224,-261.1,,,,,,,
988.72,-0.00229,-262.9,,,,,,,
988.76,-0.00233,-264.4,,,,,,,
988.77,-0.00234,-264.7,,,,,,,
988.81,-0.00239,-248.7,,,,,,,
988.82,-0.00247,-248.6,,,,,,,
988.82,-0.00254,-248.5,,,,,,,
988.82,-0.00263,-248.5,,,,,,,
988.82,-0.00272,-248.5,,,,,,,
988.83,-0.00279,-248.7,,,,,,,
988.83,-0.00286,-248.7,,,,,,,
988.93,-0.00281,-231.3,,,,,,,
988.97,-0.00276,-220.5,,,,,,,
989.03,-0.00271,-211.0,,,,,,,
989.22,-0.00276,-212.9,,,,,,,
989.27,-0.00281,-218.1,,,,,,,
989.32,-0.00286,-223.1,,,,,,,
989.37,-0.00291,-227.9,,,,,,,
989.41,-0.00296,-232.5,,,,,,,
989.46,-0.00301,-237.0,,,,,,,
989.51,-0.00306,-241.0,,,,,,,
989.56,-0.00311,-244.9,,,,,,,
989.62,-0.00316,-249.1,,,,,,,
989.67,-0.00321,-253.2,,,,,,,
989.72,-0.00326,-256.7,,,,,,,
989.76,-0.00331,-259.7,,,,,,,
989.81,-0.00336,-262.5,,,,,,,
989.85,-0.00341,-265.4,,,,,,,
989.9,-0.00346,-267.8,,,,,,,
989.94,-0.00352,-269.7,,,,,,,
989.99,-0.00357,-271.5,,,,,,,
990.04,-0.00362,-273.1,,,,,,,
990.09,-0.00367,-274.6,,,,,,,
990.12,-0.00372,-262.5,,,,,,,
990.12,-0.00377,-262.1,,,,,,,
990.12,-0.00389,-262.5,,,,,,,
990.12,-0.00396,-262.4,,,,,,,
990.12,-0.00406,-262.4,,,,,,,
990.12,-0.00415,-262.4,,,,,,,
990.12,-0.00425,-262.2,,,,,,,
990.12,-0.00435,-262.3,,,,,,,
990.12,-0.00444,-262.3,,,,,,,
990.13,-0.00452,-262.4,,,,,,,
990.13,-0.00458,-262.5,,,,,,,
990.13,-0.00466,-262.4,,,,,,,
990.14,-0.0046,-262.5,,,,,,,
990.14,-0.00455,-262.0,,,,,,,
990.15,-0.0046,-261.0,,,,,,,
990.18,-0.00455,-246.9,,,,,,,
990.2,-0.0045,-235.7,,,,,,,
990.22,-0.00445,-227.1,,,,,,,
990.23,-0.0044,-217.8,,,,,,,
990.24,-0.00434,-209.4,,,,,,,
990.26,-0.00429,-200.9,,,,,,,
990.27,-0.00424,-193.1,,,,,,,
990.29,-0.00419,-185.2,,,,,,,
990.31,-0.00414,-177.2,,,,,,,
990.33,-0.00409,-169.4,,,,,,,
990.37,-0.00404,-161.9,,,,,,,
990.54,-0.00409,-168.6,,,,,,,
990.59,-0.00414,-175.0,,,,,,,
990.63,-0.00419,-181.2,,,,,,,
990.68,-0.00424,-187.2,,,,,,,
990.72,-0.00429,-192.7,,,,,,,
990.76,-0.00433,-197.6,,,,,,,
990.77,-0.00434,-198.0,,,,,,,
990.82,-0.00439,-203.5,,,,,,,
990.87,-0.00444,-208.9,,,,,,,
990.92,-0.00449,-213.5,,,,,,,
990.97,-0.00454,-218.2,,,,,,,
991.03,-0.00459,-222.8,,,,,,,
991.08,-0.00464,-227.4,,,,,,,
991.14,-0.00469,-232.2,,,,,,,
991.19,-0.00474,-236.6,,,,,,,
991.24,-0.00479,-241.0,,,,,,,
991.29,-0.00484,-245.1,,,,,,,
991.36,-0.00489,-247.1,,,,,,,
991.53,-0.00484,-226.6,,,,,,,
991.59,-0.00479,-216.0,,,,,,,
991.64,-0.00474,-205.9,,,,,,,
991.69,-0.00469,-196.4,,,,,,,
991.74,-0.00464,-187.6,,,,,,,
991.76,-0.00461,-182.8,,,,,,,
991.78,-0.00459,-179.1,,,,,,,
991.83,-0.00454,-171.0,,,,,,,
991.88,-0.00449,-162.8,,,,,,,
991.94,-0.00444,-154.6,,,,,,,
992.0,-0.00439,-146.2,,,,,,,
992.05,-0.00434,-138.0,,,,,,,
992.11,-0.00429,-130.1,,,,,,,
992.16,-0.00424,-122.7,,,,,,,
992.21,-0.00419,-114.9,,,,,,,
992.27,-0.00414,-107.3,,,,,,,
992.32,-0.00409,-100.1,,,,,,,
992.37,-0.00404,-92.87,,,,,,,
992.43,-0.00399,-85.04,,,,,,,
992.49,-0.00394,-77.28,,,,,,,
992.55,-0.00388,-69.91,,,,,,,
992.59,-0.00383,-63.35,,,,,,,
992.64,-0.00378,-57.01,,,,,,,
992.7,-0.00373,-50.43,,,,,,,
992.75,-0.00368,-44.15,,,,,,,
992.76,-0.00367,-42.64,,,,,,,
992.8,-0.00363,-37.9,,,,,,,
992.86,-0.00358,-30.85,,,,,,,
992.92,-0.00353,-23.95,,,,,,,
992.98,-0.00348,-17.22,,,,,,,
993.04,-0.00343,-10.4,,,,,,,
993.09,-0.00338,-4.13,,,,,,,
993.14,-0.00333,2.12,,,,,,,
993.19,-0.00328,8.22,,,,,,,
993.25,-0.00323,14.45,,,,,,,
993.3,-0.00318,20.31,,,,,,,
993.37,-0.00313,25.97,,,,,,,
993.47,-0.00308,31.67,,,,,,,
993.53,-0.00303,38.02,,,,,,,
993.58,-0.00298,44.41,,,,,,,
993.62,-0.00293,49.77,,,,,,,
993.68,-0.00288,55.62,,,,,,,
993.75,-0.00283,60.66,,,,,,,
993.76,-0.00281,61.99,,,,,,,
993.81,-0.00278,66.02,,,,,,,
993.89,-0.00273,71.91,,,,,,,
993.95,-0.00268,76.9,,,,,,,
994.01,-0.00262,82.55,,,,,,,
994.07,-0.00257,88.12,,,,,,,
994.12,-0.00252,93.48,,,,,,,
994.16,-0.00247,99.45,,,,,,,
994.19,-0.00242,105.1,,,,,,,
994.22,-0.00237,111.36,,,,,,,
994.25,-0.00232,117.11,,,,,,,
994.28,-0.00227,122.41,,,,,,,
994.32,-0.00222,127.45,,,,,,,
994.35,-0.00217,132.48,,,,,,,
994.38,-0.00211,137.23,,,,,,,
994.42,-0.00206,141.73,,,,,,,
994.46,-0.00201,146.26,,,,,,,
994.51,-0.00196,150.49,,,,,,,
994.56,-0.00191,154.89,,,,,,,
994.6,-0.00186,158.39,,,,,,,
994.65,-0.00181,162.1,,,,,,,
994.7,-0.00176,165.65,,,,,,,
994.74,-0.00171,168.71,,,,,,,
994.76,-0.00169,169.97,,,,,,,
994.79,-0.00166,171.64,,,,,,,
994.84,-0.00161,174.38,,,,,,,
994.89,-0.00156,177.47,,,,,,,
994.94,-0.00151,180.26,,,,,,,
994.99,-0.00146,183.08,,,,,,,
995.05,-0.00141,186.16,,,,,,,
995.09,-0.00136,188.77,,,,,,,
995.14,-0.00131,191.5,,,,,,,
995.2,-0.00126,194.69,,,,,,,
995.26,-0.00121,197.96,,,,,,,
995.31,-0.00116,200.99,,,,,,,
995.35,-0.0011,203.75,,,,,,,
995.39,-0.00105,206.23,,,,,,,
995.45,-0.001,208.91,,,,,,,
995.5,-0.00095,211.39,,,,,,,
995.54,-0.0009,213.67,,,,,,,
995.59,-0.00085,215.91,,,,,,,
995.64,-0.0008,218.01,,,,,,,
995.7,-0.00075,220.08,,,,,,,
995.74,-0.0007,221.95,,,,,,,
995.76,-0.00068,222.82,,,,,,,
995.79,-0.00065,224.0,,,,,,,
995.84,-0.0006,225.81,,,,,,,
995.86,-0.00055,219.9,,,,,,,
995.86,-0.00049,220.13,,,,,,,
995.86,-0.0004,220.16,,,,,,,
995.86,-0.00035,220.21,,,,,,,
995.86,-0.0003,220.22,,,,,,,
995.86,-0.00024,220.22,,,,,,,
995.86,-0.00019,220.28,,,,,,,
995.87,-0.00011,220.45,,,,,,,
995.87,-6e-05,220.45,,,,,,,
995.95,-0.00011,206.22,,,,,,,
995.98,-0.00016,195.79,,,,,,,
996.01,-0.00021,187.04,,,,,,,
996.04,-0.00026,179.54,,,,,,,
996.13,-0.00031,171.22,,,,,,,
996.24,-0.00026,176.18,,,,,,,
1976.7,-0.00015,224.39,,,,,,,
1976.76,-0.0001,225.47,,,,,,,
1976.76,-9e-05,225.57,,,,,,,
1976.81,-4e-05,226.48,,,,,,,
1976.87,1e-05,227.47,,,,,,,
1976.92,6e-05,228.6,,,,,,,
1976.97,0.00011,229.79,,,,,,,
1977.01,0.00016,230.92,,,,,,,
1977.06,0.00021,231.91,,,,,,,
1977.11,0.00026,232.83,,,,,,,
1977.16,0.00031,233.74,,,,,,,
1977.21,0.00036,234.56,,,,,,,
1977.27,0.00041,235.48,,,,,,,
1977.32,0.00046,236.57,,,,,,,
1977.37,0.00051,237.7,,,,,,,
1977.43,0.00056,239.18,,,,,,,
1977.48,0.00061,240.61,,,,,,,
1977.53,0.00066,242.27,,,,,,,
1977.58,0.00071,243.8,,,,,,,
1977.63,0.00076,245.23,,,,,,,
1977.67,0.00081,246.37,,,,,,,
1977.72,0.00087,247.35,,,,,,,
1977.76,0.00091,248.08,,,,,,,
1977.77,0.00092,248.12,,,,,,,
1977.82,0.00097,248.88,,,,,,,
1977.87,0.00102,249.53,,,,,,,
1977.92,0.00107,250.21,,,,,,,
1977.97,0.00112,250.77,,,,,,,
1978.01,0.00117,251.3,,,,,,,
1978.07,0.00122,251.81,,,,,,,
1978.12,0.00127,252.43,,,,,,,
1978.17,0.00132,253.16,,,,,,,
1978.23,0.00137,254.03,,,,,,,
1978.28,0.00142,254.85,,,,,,,
1978.32,0.00147,255.76,,,,,,,
1978.37,0.00152,256.49,,,,,,,
1978.42,0.00157,257.16,,,,,,,
1978.47,0.00162,257.57,,,,,,,
1978.52,0.00167,257.94,,,,,,,
1978.56,0.00172,258.42,,,,,,,
1978.61,0.00177,258.86,,,,,,,
1978.66,0.00183,259.09,,,,,,,
1978.71,0.00188,259.24,,,,,,,
1978.76,0.00193,259.51,,,,,,,
1978.76,0.00193,259.49,,,,,,,
1978.82,0.00198,259.77,,,,,,,
1978.86,0.00203,260.17,,,,,,,
1978.91,0.00208,260.44,,,,,,,
1978.95,0.00213,260.65,,,,,,,
1979.0,0.00218,260.57,,,,,,,
1979.05,0.00223,260.33,,,,,,,
1979.1,0.00228,260.19,,,,,,,
1979.15,0.00233,260.08,,,,,,,
1979.2,0.00238,259.88,,,,,,,
1979.25,0.00243,259.65,,,,,,,
1979.3,0.00248,259.5,,,,,,,
1979.35,0.00253,259.28,,,,,,,
1979.4,0.00258,259.2,,,,,,,
1979.45,0.00263,259.16,,,,,,,
1979.51,0.00268,259.21,,,,,,,
1979.56,0.00273,259.37,,,,,,,
1979.61,0.00278,259.67,,,,,,,
1979.66,0.00283,260.19,,,,,,,
1979.71,0.00288,260.71,,,,,,,
1979.76,0.00294,261.09,,,,,,,
1979.76,0.00294,261.1,,,,,,,
1979.81,0.00299,261.42,,,,,,,
1979.86,0.00304,261.74,,,,,,,
1979.91,0.00309,261.99,,,,,,,
1979.96,0.00314,262.27,,,,,,,
1980.01,0.00319,262.44,,,,,,,
1980.06,0.00324,262.51,,,,,,,
1980.11,0.00329,262.68,,,,,,,
1980.16,0.00334,263.04,,,,,,,
1980.21,0.00339,263.54,,,,,,,
1980.26,0.00344,264.03,,,,,,,
1980.32,0.00349,264.43,,,,,,,
1980.37,0.00354,264.78,,,,,,,
1980.42,0.00359,265.23,,,,,,,
1980.47,0.00364,265.71,,,,,,,
1980.51,0.00369,266.19,,,,,,,
1980.56,0.00374,266.6,,,,,,,
1980.61,0.00379,267.0,,,,,,,
1980.66,0.00384,267.21,,,,,,,
1980.7,0.00389,267.38,,,,,,,
1980.75,0.00394,267.36,,,,,,,
1980.76,0.00396,267.34,,,,,,,
1980.8,0.004,267.18,,,,,,,
1980.85,0.00405,266.92,,,,,,,
1980.9,0.0041,266.47,,,,,,,
1980.94,0.00415,265.97,,,,,,,
1981.0,0.0042,265.53,,,,,,,
1981.05,0.00425,265.22,,,,,,,
1981.1,0.0043,265.07,,,,,,,
1981.15,0.00435,264.85,,,,,,,
1981.2,0.0044,264.7,,,,,,,
1981.25,0.00445,264.69,,,,,,,
1981.29,0.0045,264.55,,,,,,,
1981.34,0.00455,264.32,,,,,,,
1981.39,0.0046,263.95,,,,,,,
1981.44,0.00465,263.58,,,,,,,
1981.49,0.0047,262.96,,,,,,,
1981.54,0.00476,262.52,,,,,,,
1981.6,0.00481,262.11,,,,,,,
1981.65,0.00486,261.82,,,,,,,
1981.7,0.00491,261.86,,,,,,,
1981.76,0.00495,261.0,,,,,,,
1981.77,0.00496,260.83,,,,,,,
1981.96,0.00491,230.82,,,,,,,
1982.01,0.00486,219.65,,,,,,,
1982.05,0.0048,210.04,,,,,,,
1982.1,0.00475,200.7,,,,,,,
1982.14,0.0047,192.42,,,,,,,
1982.18,0.00465,184.49,,,,,,,
1982.22,0.0046,177.19,,,,,,,
1982.27,0.00455,169.67,,,,,,,
1982.32,0.0045,161.82,,,,,,,
1982.37,0.00445,155.08,,,,,,,
1982.43,0.0044,147.9,,,,,,,
1982.48,0.00435,140.57,,,,,,,
1982.54,0.0043,133.18,,,,,,,
1982.6,0.00425,125.24,,,,,,,
1982.66,0.0042,117.82,,,,,,,
1982.71,0.00415,110.48,,,,,,,
1982.76,0.0041,103.95,,,,,,,
1982.77,0.0041,103.04,,,,,,,
1982.82,0.00405,95.76,,,,,,,
1982.88,0.004,88.11,,,,,,,
1982.94,0.00395,81.19,,,,,,,
1982.99,0.0039,74.71,,,,,,,
1983.03,0.00384,68.74,,,,,,,
1983.08,0.00379,62.8,,,,,,,
1983.14,0.00374,56.34,,,,,,,
1983.19,0.00369,49.98,,,,,,,
1983.24,0.00364,44.58,,,,,,,
1983.29,0.00359,38.63,,,,,,,
1983.34,0.00354,33.56,,,,,,,
1983.4,0.00349,28.14,,,,,,,
1983.46,0.00344,21.5,,,,,,,
1983.52,0.00339,15.17,,,,,,,
1983.58,0.00334,8.89,,,,,,,
1983.63,0.00329,2.82,,,,,,,
1983.69,0.00324,-3.51,,,,,,,
1983.75,0.00319,-9.78,,,,,,,
1983.76,0.00318,-11.39,,,,,,,
1983.81,0.00314,-15.96,,,,,,,
1983.87,0.00309,-20.32,,,,,,,
1984.04,0.00304,-20.88,,,,,,,
1984.13,0.00299,-25.49,,,,,,,
1984.2,0.00294,-30.41,,,,,,,
1984.26,0.00289,-36.88,,,,,,,
1984.3,0.00284,-42.96,,,,,,,
1984.33,0.00279,-49.63,,,,,,,
1984.35,0.00274,-55.73,,,,,,,
1984.37,0.00269,-61.52,,,,,,,
1984.4,0.00263,-67.39,,,,,,,
1984.42,0.00258,-73.01,,,,,,,
1984.45,0.00253,-78.49,,,,,,,
1984.48,0.00248,-83.84,,,,,,,
1984.51,0.00243,-88.99,,,,,,,
1984.54,0.00238,-93.87,,,,,,,
1984.58,0.00233,-98.33,,,,,,,
1984.61,0.00228,-102.5,,,,,,,
1984.65,0.00223,-106.6,,,,,,,
1984.7,0.00218,-110.3,,,,,,,
1984.74,0.00213,-113.8,,,,,,,
1984.76,0.0021,-115.4,,,,,,,
1984.79,0.00208,-117.0,,,,,,,
1984.83,0.00203,-119.8,,,,,,,
1984.88,0.00198,-122.6,,,,,,,
1984.94,0.00193,-125.6,,,,,,,
1984.99,0.00187,-128.8,,,,,,,
1985.05,0.00182,-132.0,,,,,,,
1985.1,0.00177,-135.2,,,,,,,
1985.15,0.00172,-138.1,,,,,,,
1985.2,0.00167,-141.4,,,,,,,
1985.25,0.00162,-144.4,,,,,,,
1985.3,0.00157,-147.3,,,,,,,
1985.35,0.00152,-150.3,,,,,,,
1985.41,0.00147,-153.4,,,,,,,
1985.46,0.00142,-156.5,,,,,,,
1985.51,0.00137,-159.3,,,,,,,
1985.56,0.00132,-162.1,,,,,,,
1985.61,0.00127,-164.9,,,,,,,
1985.66,0.00122,-167.6,,,,,,,
1985.71,0.00117,-170.1,,,,,,,
1985.76,0.00112,-172.8,,,,,,,
1985.76,0.00111,-173.0,,,,,,,
1985.81,0.00107,-175.4,,,,,,,
1985.86,0.00102,-177.9,,,,,,,
1985.92,0.00097,-180.5,,,,,,,
1985.97,0.00092,-183.2,,,,,,,
1986.02,0.00086,-185.9,,,,,,,
1986.07,0.00081,-188.4,,,,,,,
1986.12,0.00076,-191.0,,,,,,,
1986.17,0.00071,-193.6,,,,,,,
1986.21,0.00066,-195.8,,,,,,,
1986.26,0.00061,-198.1,,,,,,,
1986.31,0.00056,-200.2,,,,,,,
1986.36,0.00051,-202.1,,,,,,,
1986.41,0.00046,-203.8,,,,,,,
1986.46,0.00041,-205.5,,,,,,,
1986.51,0.00036,-207.5,,,,,,,
1986.57,0.00031,-209.6,,,,,,,
1986.62,0.00026,-211.7,,,,,,,
1986.67,0.00021,-213.8,,,,,,,
1986.73,0.00016,-215.9,,,,,,,
1986.76,0.00012,-217.5,,,,,,,
1986.78,0.00011,-218.2,,,,,,,
1986.83,6e-05,-220.3,,,,,,,
1986.87,0.0,-222.4,,,,,,,
1986.93,-5e-05,-224.5,,,,,,,
1986.97,-0.0001,-226.3,,,,,,,
1987.02,-0.00015,-228.0,,,,,,,
1987.07,-0.0002,-229.8,,,,,,,
1987.11,-0.00025,-231.3,,,,,,,
1987.16,-0.0003,-232.5,,,,,,,
1987.21,-0.00035,-233.7,,,,,,,
1987.26,-0.0004,-234.7,,,,,,,
1987.31,-0.00045,-235.7,,,,,,,
1987.36,-0.0005,-236.7,,,,,,,
1987.42,-0.00055,-237.8,,,,,,,
1987.46,-0.0006,-238.9,,,,,,,
1987.51,-0.00065,-240.0,,,,,,,
1987.56,-0.0007,-241.1,,,,,,,
1987.61,-0.00075,-242.1,,,,,,,
1987.66,-0.0008,-242.9,,,,,,,
1987.71,-0.00086,-243.9,,,,,,,
1987.76,-0.00091,-244.7,,,,,,,
1987.76,-0.00091,-244.8,,,,,,,
1987.81,-0.00096,-245.5,,,,,,,
1987.86,-0.00101,-246.1,,,,,,,
1987.9,-0.00106,-246.8,,,,,,,
1987.95,-0.00111,-247.4,,,,,,,
1988.0,-0.00116,-247.9,,,,,,,
1988.05,-0.00121,-248.4,,,,,,,
1988.1,-0.00126,-248.8,,,,,,,
1988.16,-0.00131,-249.3,,,,,,,
1988.21,-0.00136,-250.0,,,,,,,
1988.26,-0.00141,-250.7,,,,,,,
1988.31,-0.00146,-251.6,,,,,,,
1988.36,-0.00151,-252.3,,,,,,,
1988.41,-0.00156,-253.0,,,,,,,
1988.46,-0.00161,-253.7,,,,,,,
1988.51,-0.00166,-254.5,,,,,,,
1988.57,-0.00171,-255.2,,,,,,,
1988.62,-0.00176,-256.3,,,,,,,
1988.67,-0.00181,-257.2,,,,,,,
1988.71,-0.00186,-258.1,,,,,,,
1988.76,-0.00192,-258.9,,,,,,,
1988.76,-0.00192,-259.0,,,,,,,
1988.81,-0.00197,-259.7,,,,,,,
1988.86,-0.00202,-260.2,,,,,,,
1988.91,-0.00207,-260.7,,,,,,,
1988.96,-0.00212,-261.3,,,,,,,
1989.01,-0.00217,-262.0,,,,,,,
1989.06,-0.00222,-262.7,,,,,,,
1989.11,-0.00227,-263.4,,,,,,,
1989.16,-0.00232,-264.0,,,,,,,
1989.21,-0.00237,-264.6,,,,,,,
1989.25,-0.00242,-265.1,,,,,,,
1989.3,-0.00247,-265.5,,,,,,,
1989.35,-0.00252,-265.7,,,,,,,
1989.4,-0.00257,-266.0,,,,,,,
1989.46,-0.00262,-266.3,,,,,,,
1989.51,-0.00267,-266.8,,,,,,,
1989.56,-0.00272,-267.4,,,,,,,
1989.61,-0.00277,-268.1,,,,,,,
1989.67,-0.00282,-268.9,,,,,,,
1989.72,-0.00287,-269.7,,,,,,,
1989.76,-0.00292,-270.6,,,,,,,
1989.77,-0.00292,-270.7,,,,,,,
1989.81,-0.00297,-271.5,,,,,,,
1989.86,-0.00302,-272.3,,,,,,,
1989.91,-0.00307,-273.0,,,,,,,
1989.96,-0.00313,-273.7,,,,,,,
1990.0,-0.00318,-274.2,,,,,,,
1990.05,-0.00323,-274.5,,,,,,,
1990.1,-0.00328,-274.6,,,,,,,
1990.15,-0.00333,-274.6,,,,,,,
1990.19,-0.00338,-274.5,,,,,,,
1990.24,-0.00343,-274.4,,,,,,,
1990.28,-0.00348,-274.3,,,,,,,
1990.33,-0.00353,-273.8,,,,,,,
1990.38,-0.00358,-273.3,,,,,,,
1990.43,-0.00363,-272.6,,,,,,,
1990.49,-0.00368,-271.9,,,,,,,
1990.54,-0.00373,-271.4,,,,,,,
1990.59,-0.00378,-271.0,,,,,,,
1990.64,-0.00383,-270.9,,,,,,,
1990.69,-0.00388,-271.0,,,,,,,
1990.74,-0.00393,-270.9,,,,,,,
1990.76,-0.00395,-270.9,,,,,,,
1990.79,-0.00398,-270.9,,,,,,,
1990.85,-0.00403,-270.9,,,,,,,
1990.9,-0.00408,-271.2,,,,,,,
1990.94,-0.00413,-271.5,,,,,,,
1990.99,-0.00418,-271.7,,,,,,,
1991.05,-0.00423,-271.9,,,,,,,
1991.1,-0.00428,-272.3,,,,,,,
1991.15,-0.00434,-272.5,,,,,,,
1991.2,-0.00439,-272.7,,,,,,,
1991.24,-0.00444,-273.0,,,,,,,
1991.29,-0.00449,-273.2,,,,,,,
1991.34,-0.00454,-273.3,,,,,,,
1991.39,-0.00459,-273.4,,,,,,,
1991.44,-0.00464,-273.5,,,,,,,
1991.49,-0.00469,-273.6,,,,,,,
1991.54,-0.00474,-273.7,,,,,,,
1991.59,-0.00479,-273.7,,,,,,,
1991.64,-0.00484,-273.6,,,,,,,
1991.69,-0.00489,-273.5,,,,,,,
1991.74,-0.00494,-273.0,,,,,,,
1991.76,-0.00496,-272.2,,,,,,,
1991.82,-0.00499,-267.5,,,,,,,
1991.93,-0.00494,-245.6,,,,,,,
1991.98,-0.00489,-234.2,,,,,,,
1992.02,-0.00484,-223.4,,,,,,,
1992.06,-0.00479,-213.9,,,,,,,
1992.1,-0.00474,-204.5,,,,,,,
1992.14,-0.00469,-196.2,,,,,,,
1992.19,-0.00464,-187.3,,,,,,,
1992.24,-0.00459,-178.3,,,,,,,
1992.29,-0.00454,-170.0,,,,,,,
1992.34,-0.00448,-161.8,,,,,,,
1992.4,-0.00443,-153.4,,,,,,,
1992.45,-0.00438,-146.0,,,,,,,
1992.5,-0.00433,-138.5,,,,,,,
1992.55,-0.00428,-131.2,,,,,,,
1992.61,-0.00423,-123.5,,,,,,,
1992.66,-0.00418,-115.8,,,,,,,
1992.72,-0.00413,-108.2,,,,,,,
1992.76,-0.00409,-102.7,,,,,,,
1992.77,-0.00408,-101.7,,,,,,,
1992.82,-0.00403,-94.67,,,,,,,
1992.88,-0.00398,-87.63,,,,,,,
1992.93,-0.00393,-81.04,,,,,,,
1992.98,-0.00388,-75.3,,,,,,,
1993.03,-0.00383,-69.25,,,,,,,
1993.08,-0.00378,-63.02,,,,,,,
1993.14,-0.00373,-56.58,,,,,,,
1993.19,-0.00368,-50.04,,,,,,,
1993.25,-0.00363,-43.61,,,,,,,
1993.31,-0.00358,-36.77,,,,,,,
1993.36,-0.00353,-30.51,,,,,,,
1993.42,-0.00348,-24.25,,,,,,,
1993.47,-0.00343,-17.87,,,,,,,
1993.53,-0.00338,-11.73,,,,,,,
1993.58,-0.00333,-5.45,,,,,,,
1993.63,-0.00328,0.71,,,,,,,
1993.69,-0.00322,6.9,,,,,,,
1993.75,-0.00317,13.09,,,,,,,
1993.76,-0.00316,14.85,,,,,,,
1993.8,-0.00312,19.16,,,,,,,
1993.86,-0.00307,24.62,,,,,,,
1993.95,-0.00302,28.79,,,,,,,
1994.02,-0.00297,34.54,,,,,,,
1994.07,-0.00292,40.77,,,,,,,
1994.11,-0.00287,46.14,,,,,,,
1994.16,-0.00282,51.13,,,,,,,
1994.23,-0.00277,56.41,,,,,,,
1994.3,-0.00272,61.56,,,,,,,
1994.36,-0.00267,66.38,,,,,,,
1994.42,-0.00262,70.52,,,,,,,
1994.47,-0.00257,74.54,,,,,,,
1994.54,-0.00252,79.36,,,,,,,
1994.6,-0.00247,84.28,,,,,,,
1994.65,-0.00242,89.72,,,,,,,
1994.69,-0.00237,95.63,,,,,,,
1994.73,-0.00232,101.65,,,,,,,
1994.76,-0.00226,107.11,,,,,,,
1994.76,-0.00226,107.94,,,,,,,
1994.79,-0.00221,112.67,,,,,,,
1994.82,-0.00216,117.76,,,,,,,
1994.85,-0.00211,122.96,,,,,,,
1994.89,-0.00206,128.05,,,,,,,
1994.92,-0.00201,132.64,,,,,,,
1994.96,-0.00196,136.77,,,,,,,
1995.0,-0.00191,140.66,,,,,,,
1995.04,-0.00186,144.47,,,,,,,
1995.08,-0.00181,147.75,,,,,,,
1995.13,-0.00176,150.94,,,,,,,
1995.18,-0.00171,153.94,,,,,,,
1995.23,-0.00166,156.97,,,,,,,
1995.28,-0.00161,159.77,,,,,,,
1995.33,-0.00156,162.41,,,,,,,
1995.38,-0.00151,165.26,,,,,,,
1995.44,-0.00145,168.3,,,,,,,
1995.49,-0.0014,171.25,,,,,,,
1995.54,-0.00135,174.03,,,,,,,
1995.59,-0.0013,177.29,,,,,,,
1995.64,-0.00125,180.37,,,,,,,
1995.69,-0.0012,183.06,,,,,,,
1995.74,-0.00115,185.85,,,,,,,
1995.76,-0.00113,187.14,,,,,,,
1995.79,-0.0011,188.5,,,,,,,
1995.84,-0.00105,191.07,,,,,,,
1995.89,-0.001,193.51,,,,,,,
1995.94,-0.00095,196.11,,,,,,,
1995.99,-0.0009,198.57,,,,,,,
1996.04,-0.00085,201.01,,,,,,,
1996.09,-0.0008,203.24,,,,,,,
1996.13,-0.00075,205.37,,,,,,,
1996.18,-0.0007,207.42,,,,,,,
1996.24,-0.00065,209.49,,,,,,,
1996.29,-0.0006,211.58,,,,,,,
1996.34,-0.00055,213.73,,,,,,,
1996.39,-0.00049,215.72,,,,,,,
1996.44,-0.00044,217.64,,,,,,,
1996.49,-0.00039,219.46,,,,,,,
1996.53,-0.00034,221.2,,,,,,,
1996.58,-0.00029,222.96,,,,,,,
1996.63,-0.00024,224.51,,,,,,,
1996.68,-0.00019,225.94,,,,,,,
3977.59,-0.00016,229.32,,,,,,,
3977.62,-0.00011,223.0,,,,,,,
3977.62,-4e-05,223.25,,,,,,,
3977.62,4e-05,223.27,,,,,,,
3977.62,0.00013,223.26,,,,,,,
3977.63,0.0002,223.37,,,,,,,
3977.63,0.00026,223.49,,,,,,,
3977.75,0.00021,205.25,,,,,,,
3977.76,0.00019,201.93,,,,,,,
3977.83,0.00016,192.43,,,,,,,
3978.0,0.00021,191.85,,,,,,,
3978.05,0.00026,196.55,,,,,,,
3978.11,0.00031,201.84,,,,,,,
3978.15,0.00036,206.24,,,,,,,
3978.2,0.00041,210.48,,,,,,,
3978.25,0.00046,214.57,,,,,,,
3978.29,0.00051,218.47,,,,,,,
3978.34,0.00056,221.99,,,,,,,
3978.39,0.00061,225.14,,,,,,,
3978.44,0.00066,228.07,,,,,,,
3978.48,0.00072,230.78,,,,,,,
3978.53,0.00077,233.31,,,,,,,
3978.58,0.00082,235.71,,,,,,,
3978.64,0.00087,238.07,,,,,,,
3978.68,0.00092,240.32,,,,,,,
3978.73,0.00097,242.58,,,,,,,
3978.76,0.001,243.76,,,,,,,
3978.78,0.00102,244.55,,,,,,,
3978.83,0.00107,246.39,,,,,,,
3978.87,0.00112,247.97,,,,,,,
3978.92,0.00117,249.39,,,,,,,
3978.96,0.00122,250.51,,,,,,,
3979.01,0.00127,251.43,,,,,,,
3979.06,0.00132,252.2,,,,,,,
3979.12,0.00137,252.95,,,,,,,
3979.15,0.00143,235.96,,,,,,,
3979.16,0.00149,235.81,,,,,,,
3979.16,0.00156,235.81,,,,,,,
3979.16,0.00165,235.77,,,,,,,
3979.16,0.00172,235.7,,,,,,,
3979.16,0.00177,235.84,,,,,,,
3979.34,0.00172,209.97,,,,,,,
3979.55,0.00177,208.8,,,,,,,
3979.61,0.00182,213.89,,,,,,,
3979.65,0.00188,218.24,,,,,,,
3979.7,0.00193,222.25,,,,,,,
3979.74,0.00198,226.07,,,,,,,
3979.76,0.002,227.89,,,,,,,
3979.79,0.00203,229.78,,,,,,,
3979.83,0.00208,233.22,,,,,,,
3979.88,0.00213,236.46,,,,,,,
3979.94,0.00218,239.57,,,,,,,
3979.98,0.00223,242.16,,,,,,,
3980.03,0.00228,244.65,,,,,,,
3980.08,0.00233,246.91,,,,,,,
3980.13,0.00238,248.96,,,,,,,
3980.18,0.00243,250.87,,,,,,,
3980.23,0.00248,252.73,,,,,,,
3980.28,0.00253,254.36,,,,,,,
3980.32,0.00258,255.98,,,,,,,
3980.37,0.00263,257.31,,,,,,,
3980.41,0.00268,258.33,,,,,,,
3980.46,0.00274,259.25,,,,,,,
3980.51,0.00279,260.08,,,,,,,
3980.55,0.00284,260.65,,,,,,,
3980.6,0.00289,261.13,,,,,,,
3980.65,0.00294,261.59,,,,,,,
3980.71,0.00299,262.04,,,,,,,
3980.76,0.00304,262.59,,,,,,,
3980.76,0.00304,262.62,,,,,,,
3980.81,0.00309,263.38,,,,,,,
3980.86,0.00314,264.21,,,,,,,
3980.91,0.00319,264.99,,,,,,,
3980.96,0.00324,265.71,,,,,,,
3981.0,0.00329,266.36,,,,,,,
3981.05,0.00334,266.92,,,,,,,
3981.1,0.00339,267.23,,,,,,,
3981.13,0.00345,258.47,,,,,,,
3981.13,0.00351,258.34,,,,,,,
3981.16,0.00356,258.35,,,,,,,
3981.23,0.00361,254.77,,,,,,,
3981.33,0.00366,249.46,,,,,,,
3981.42,0.00371,247.81,,,,,,,
3981.49,0.00376,248.54,,,,,,,
3981.55,0.00381,250.42,,,,,,,
3981.6,0.00386,252.63,,,,,,,
3981.65,0.00391,254.8,,,,,,,
3981.69,0.00396,256.72,,,,,,,
3981.73,0.00401,258.41,,,,,,,
3981.76,0.00405,259.47,,,,,,,
3981.78,0.00407,259.9,,,,,,,
3981.83,0.00412,261.12,,,,,,,
3981.87,0.00417,262.13,,,,,,,
3981.93,0.00422,263.07,,,,,,,
3981.98,0.00427,264.09,,,,,,,
3982.03,0.00432,264.95,,,,,,,
3982.07,0.00437,265.77,,,,,,,
3982.12,0.00442,266.38,,,,,,,
3982.16,0.00447,266.7,,,,,,,
3982.21,0.00452,266.82,,,,,,,
3982.27,0.00457,266.87,,,,,,,
3982.32,0.00462,266.97,,,,,,,
3982.36,0.00467,267.24,,,,,,,
3982.41,0.00472,267.44,,,,,,,
3982.46,0.00477,267.54,,,,,,,
3982.51,0.00482,267.53,,,,,,,
3982.56,0.00487,267.53,,,,,,,
3982.61,0.00492,267.56,,,,,,,
3982.67,0.00497,265.19,,,,,,,
3982.76,0.00498,250.92,,,,,,,
3982.83,0.00492,235.94,,,,,,,
3982.87,0.00487,225.99,,,,,,,
3982.91,0.00482,215.73,,,,,,,
3982.95,0.00477,207.06,,,,,,,
3983.0,0.00472,198.15,,,,,,,
3983.05,0.00467,188.98,,,,,,,
3983.1,0.00462,180.26,,,,,,,
3983.15,0.00457,171.76,,,,,,,
3983.19,0.00452,164.83,,,,,,,
3983.24,0.00447,157.18,,,,,,,
3983.3,0.00442,148.43,,,,,,,
3983.36,0.00437,140.49,,,,,,,
3983.42,0.00431,132.39,,,,,,,
3983.47,0.00426,125.32,,,,,,,
3983.52,0.00421,117.63,,,,,,,
3983.58,0.00416,110.3,,,,,,,
3983.63,0.00411,103.03,,,,,,,
3983.68,0.00406,96.59,,,,,,,
3983.73,0.00401,89.93,,,,,,,
3983.76,0.00398,85.87,,,,,,,
3983.79,0.00396,82.85,,,,,,,
3983.84,0.00391,76.09,,,,,,,
3983.9,0.00386,68.63,,,,,,,
3983.96,0.00381,61.41,,,,,,,
3984.02,0.00376,54.01,,,,,,,
3984.08,0.00371,46.61,,,,,,,
3984.13,0.00366,40.11,,,,,,,
3984.18,0.00361,33.88,,,,,,,
3984.23,0.00356,27.74,,,,,,,
3984.28,0.00351,21.66,,,,,,,
3984.34,0.00346,15.36,,,,,,,
3984.39,0.00341,9.41,,,,,,,
3984.45,0.00336,3.14,,,,,,,
3984.5,0.00331,-2.84,,,,,,,
3984.55,0.00326,-8.61,,,,,,,
3984.61,0.0032,-14.11,,,,,,,
3984.67,0.00315,-18.92,,,,,,,
3984.76,0.00311,-20.52,,,,,,,
3984.84,0.0031,-19.76,,,,,,,
3984.93,0.00305,-24.31,,,,,,,
3985.01,0.003,-29.74,,,,,,,
3985.08,0.00295,-35.91,,,,,,,
3985.12,0.0029,-42.52,,,,,,,
3985.15,0.00285,-49.86,,,,,,,
3985.18,0.0028,-56.27,,,,,,,
3985.2,0.00275,-62.68,,,,,,,
3985.22,0.0027,-68.62,,,,,,,
3985.25,0.00265,-74.67,,,,,,,
3985.27,0.0026,-80.23,,,,,,,
3985.3,0.00254,-86.11,,,,,,,
3985.34,0.00249,-91.53,,,,,,,
3985.37,0.00244,-96.71,,,,,,,
3985.4,0.00239,-101.1,,,,,,,
3985.44,0.00234,-105.5,,,,,,,
3985.48,0.00229,-109.7,,,,,,,
3985.52,0.00224,-113.3,,,,,,,
3985.56,0.00219,-116.9,,,,,,,
3985.61,0.00214,-120.2,,,,,,,
3985.66,0.00209,-123.5,,,,,,,
3985.7,0.00204,-126.4,,,,,,,
3985.75,0.00199,-129.6,,,,,,,
3985.76,0.00198,-130.1,,,,,,,
3985.81,0.00194,-132.8,,,,,,,
3985.87,0.00189,-136.1,,,,,,,
3985.92,0.00184,-139.5,,,,,,,
3985.98,0.00179,-143.1,,,,,,,
3986.03,0.00174,-146.7,,,,,,,
3986.08,0.00169,-150.0,,,,,,,
3986.13,0.00164,-153.5,,,,,,,
3986.18,0.00159,-156.8,,,,,,,
3986.23,0.00154,-160.2,,,,,,,
3986.29,0.00148,-163.7,,,,,,,
3986.34,0.00143,-167.0,,,,,,,
3986.39,0.00138,-170.3,,,,,,,
3986.44,0.00133,-173.6,,,,,,,
3986.49,0.00128,-176.8,,,,,,,
3986.54,0.00123,-180.1,,,,,,,
3986.59,0.00118,-183.4,,,,,,,
3986.64,0.00113,-186.5,,,,,,,
3986.7,0.00108,-189.7,,,,,,,
3986.74,0.00103,-192.7,,,,,,,
3986.76,0.00101,-193.8,,,,,,,
3986.79,0.00098,-195.5,,,,,,,
3986.84,0.00093,-198.1,,,,,,,
3986.89,0.00088,-200.5,,,,,,,
3986.94,0.00083,-202.9,,,,,,,
3986.99,0.00078,-205.3,,,,,,,
3987.04,0.00073,-207.8,,,,,,,
3987.09,0.00068,-210.1,,,,,,,
3987.14,0.00063,-212.4,,,,,,,
3987.19,0.00058,-214.8,,,,,,,
3987.24,0.00053,-217.1,,,,,,,
3987.29,0.00047,-219.3,,,,,,,
3987.33,0.00042,-221.2,,,,,,,
3987.38,0.00037,-222.8,,,,,,,
3987.42,0.00032,-224.4,,,,,,,
3987.47,0.00027,-225.7,,,,,,,
3987.52,0.00022,-226.8,,,,,,,
3987.57,0.00017,-227.8,,,,,,,
3987.62,0.00012,-228.7,,,,,,,
3987.67,7e-05,-229.6,,,,,,,
3987.72,2e-05,-230.6,,,,,,,
3987.76,-2e-05,-231.5,,,,,,,
3987.78,-3e-05,-231.8,,,,,,,
3987.83,-8e-05,-233.0,,,,,,,
3987.88,-0.00013,-234.5,,,,,,,
3987.94,-0.00018,-235.9,,,,,,,
3987.99,-0.00023,-237.5,,,,,,,
3988.03,-0.00028,-239.1,,,,,,,
3988.08,-0.00033,-240.6,,,,,,,
3988.13,-0.00038,-242.0,,,,,,,
3988.18,-0.00044,-243.3,,,,,,,
3988.2,-0.0005,-230.5,,,,,,,
3988.2,-0.00055,-230.7,,,,,,,
3988.21,-0.00062,-230.7,,,,,,,
3988.21,-0.0007,-230.6,,,,,,,
3988.21,-0.00076,-230.7,,,,,,,
3988.21,-0.00083,-230.8,,,,,,,
3988.35,-0.00078,-210.4,,,,,,,
3988.61,-0.00083,-202.8,,,,,,,
3988.67,-0.00088,-207.3,,,,,,,
3988.71,-0.00093,-211.2,,,,,,,
3988.76,-0.00098,-215.4,,,,,,,
3988.76,-0.00098,-215.6,,,,,,,
3988.81,-0.00103,-219.3,,,,,,,
3988.86,-0.00108,-222.8,,,,,,,
3988.9,-0.00113,-226.3,,,,,,,
3988.95,-0.00118,-229.5,,,,,,,
3989.0,-0.00123,-232.6,,,,,,,
3989.05,-0.00128,-235.5,,,,,,,
3989.1,-0.00133,-238.2,,,,,,,
3989.15,-0.00138,-241.0,,,,,,,
3989.2,-0.00143,-243.3,,,,,,,
3989.25,-0.00148,-245.7,,,,,,,
3989.3,-0.00153,-248.0,,,,,,,
3989.34,-0.00158,-250.0,,,,,,,
3989.39,-0.00164,-252.1,,,,,,,
3989.44,-0.00169,-254.0,,,,,,,
3989.5,-0.00174,-255.6,,,,,,,
3989.54,-0.00179,-257.2,,,,,,,
3989.59,-0.00184,-258.7,,,,,,,
3989.63,-0.00189,-259.9,,,,,,,
3989.68,-0.00194,-260.9,,,,,,,
3989.72,-0.00199,-261.7,,,,,,,
3989.76,-0.00203,-262.4,,,,,,,
3989.77,-0.00204,-262.4,,,,,,,
3989.79,-0.00211,-246.1,,,,,,,
3989.79,-0.00219,-246.5,,,,,,,
3989.79,-0.00225,-246.6,,,,,,,
3989.79,-0.00232,-246.5,,,,,,,
3989.8,-0.00239,-246.5,,,,,,,
3989.8,-0.00247,-246.5,,,,,,,
3989.8,-0.00255,-246.3,,,,,,,
3989.8,-0.00262,-246.3,,,,,,,
3989.8,-0.00269,-246.4,,,,,,,
3989.8,-0.00275,-246.5,,,,,,,
3989.8,-0.00282,-246.4,,,,,,,
3989.81,-0.00277,-246.3,,,,,,,
3989.88,-0.00272,-223.6,,,,,,,
3989.9,-0.00266,-214.1,,,,,,,
3989.92,-0.00261,-205.2,,,,,,,
3989.93,-0.00256,-196.9,,,,,,,
3989.95,-0.00251,-188.9,,,,,,,
3989.97,-0.00246,-181.2,,,,,,,
3990.0,-0.00241,-172.8,,,,,,,
3990.05,-0.00236,-165.0,,,,,,,
3990.22,-0.00241,-171.9,,,,,,,
3990.26,-0.00246,-178.5,,,,,,,
3990.31,-0.00251,-184.9,,,,,,,
3990.35,-0.00256,-190.8,,,,,,,
3990.39,-0.00261,-196.8,,,,,,,
3990.44,-0.00266,-202.4,,,,,,,
3990.49,-0.00271,-207.8,,,,,,,
3990.54,-0.00276,-212.6,,,,,,,
3990.59,-0.00281,-218.0,,,,,,,
3990.65,-0.00286,-223.1,,,,,,,
3990.7,-0.00291,-227.6,,,,,,,
3990.75,-0.00296,-232.1,,,,,,,
3990.76,-0.00298,-233.3,,,,,,,
3990.8,-0.00301,-236.3,,,,,,,
3990.84,-0.00307,-239.9,,,,,,,
3990.89,-0.00312,-243.5,,,,,,,
3990.93,-0.00317,-246.7,,,,,,,
3990.98,-0.00322,-249.8,,,,,,,
3991.03,-0.00327,-252.5,,,,,,,
3991.07,-0.00332,-255.0,,,,,,,
3991.12,-0.00337,-257.2,,,,,,,
3991.16,-0.00342,-259.1,,,,,,,
3991.21,-0.00347,-260.8,,,,,,,
3991.26,-0.00352,-262.4,,,,,,,
3991.31,-0.00357,-264.0,,,,,,,
3991.35,-0.00362,-265.3,,,,,,,
3991.41,-0.00367,-266.8,,,,,,,
3991.45,-0.00372,-267.8,,,,,,,
3991.5,-0.00377,-268.8,,,,,,,
3991.54,-0.00383,-260.3,,,,,,,
3991.55,-0.00388,-260.3,,,,,,,
3991.55,-0.00394,-260.4,,,,,,,
3991.6,-0.00399,-260.0,,,,,,,
3991.71,-0.00404,-255.6,,,,,,,
3991.76,-0.00406,-254.0,,,,,,,
3991.8,-0.00409,-253.7,,,,,,,
3991.87,-0.00414,-254.1,,,,,,,
3991.93,-0.00419,-256.1,,,,,,,
3991.98,-0.00424,-258.3,,,,,,,
3992.03,-0.00429,-260.5,,,,,,,
3992.08,-0.00434,-262.7,,,,,,,
3992.13,-0.00439,-264.9,,,,,,,
3992.17,-0.00444,-266.6,,,,,,,
3992.22,-0.00449,-268.1,,,,,,,
3992.26,-0.00454,-269.3,,,,,,,
3992.3,-0.00459,-264.3,,,,,,,
3992.31,-0.00465,-264.3,,,,,,,
3992.31,-0.00471,-264.3,,,,,,,
3992.31,-0.00478,-264.3,,,,,,,
3992.31,-0.00485,-264.3,,,,,,,
3992.32,-0.0049,-264.4,,,,,,,
3992.76,-0.0049,-226.3,,,,,,,
3992.85,-0.00485,-213.4,,,,,,,
3992.91,-0.0048,-203.4,,,,,,,
3992.96,-0.00475,-193.3,,,,,,,
3993.01,-0.0047,-184.7,,,,,,,
3993.06,-0.00465,-176.1,,,,,,,
3993.11,-0.0046,-167.4,,,,,,,
3993.16,-0.00455,-159.7,,,,,,,
3993.21,-0.0045,-152.0,,,,,,,
3993.26,-0.00445,-144.3,,,,,,,
3993.31,-0.0044,-136.7,,,,,,,
3993.37,-0.00435,-128.7,,,,,,,
3993.43,-0.00429,-120.8,,,,,,,
3993.48,-0.00424,-113.1,,,,,,,
3993.54,-0.00419,-105.8,,,,,,,
3993.59,-0.00414,-98.33,,,,,,,
3993.64,-0.00409,-91.42,,,,,,,
3993.7,-0.00404,-84.43,,,,,,,
3993.75,-0.00399,-77.52,,,,,,,
3993.76,-0.00398,-75.71,,,,,,,
3993.81,-0.00394,-70.21,,,,,,,
3993.86,-0.00389,-63.33,,,,,,,
3993.91,-0.00384,-56.79,,,,,,,
3993.96,-0.00379,-50.58,,,,,,,
3994.02,-0.00374,-43.88,,,,,,,
3994.08,-0.00369,-37.05,,,,,,,
3994.13,-0.00364,-30.47,,,,,,,
3994.19,-0.00359,-23.67,,,,,,,
3994.25,-0.00354,-16.48,,,,,,,
3994.3,-0.00349,-9.62,,,,,,,
3994.36,-0.00344,-2.34,,,,,,,
3994.42,-0.00339,4.56,,,,,,,
3994.47,-0.00334,10.94,,,,,,,
3994.52,-0.00329,17.1,,,,,,,
3994.58,-0.00324,23.01,,,,,,,
3994.66,-0.00319,27.87,,,,,,,
3994.74,-0.00313,33.16,,,,,,,
3994.76,-0.00312,35.57,,,,,,,
3994.8,-0.00308,40.18,,,,,,,
3994.84,-0.00303,46.1,,,,,,,
3994.9,-0.00298,51.82,,,,,,,
3994.96,-0.00293,57.16,,,,,,,
3995.02,-0.00288,62.19,,,,,,,
3995.09,-0.00283,67.36,,,,,,,
3995.15,-0.00278,72.53,,,,,,,
3995.22,-0.00273,77.88,,,,,,,
3995.28,-0.00268,83.38,,,,,,,
3995.34,-0.00263,88.67,,,,,,,
3995.39,-0.00258,94.34,,,,,,,
3995.42,-0.00253,100.4,,,,,,,
3995.46,-0.00248,106.16,,,,,,,
3995.49,-0.00243,112.08,,,,,,,
3995.52,-0.00238,117.79,,,,,,,
3995.55,-0.00233,123.04,,,,,,,
3995.58,-0.00228,128.23,,,,,,,
3995.61,-0.00223,133.38,,,,,,,
3995.65,-0.00218,137.82,,,,,,,
3995.68,-0.00213,142.15,,,,,,,
3995.72,-0.00207,146.04,,,,,,,
3995.76,-0.00202,149.58,,,,,,,
3995.76,-0.00202,149.74,,,,,,,
3995.8,-0.00197,153.1,,,,,,,
3995.85,-0.00192,156.57,,,,,,,
3995.9,-0.00187,159.59,,,,,,,
3995.95,-0.00182,162.61,,,,,,,
3996.0,-0.00177,165.59,,,,,,,
3996.06,-0.00172,168.81,,,,,,,
3996.11,-0.00167,171.78,,,,,,,
3996.15,-0.00162,174.67,,,,,,,
3996.21,-0.00157,177.62,,,,,,,
3996.25,-0.00152,180.31,,,,,,,
3996.31,-0.00147,183.33,,,,,,,
3996.36,-0.00142,186.24,,,,,,,
3996.41,-0.00137,188.99,,,,,,,
3996.46,-0.00132,191.71,,,,,,,
3996.51,-0.00127,194.26,,,,,,,
3996.55,-0.00121,196.68,,,,,,,
3996.6,-0.00116,199.0,,,,,,,
3996.65,-0.00111,201.35,,,,,,,
3996.71,-0.00106,203.57,,,,,,,
3996.76,-0.00102,206.27,,,,,,,
3996.77,-0.00101,206.44,,,,,,,
3996.82,-0.00096,209.23,,,,,,,
3996.87,-0.00091,211.99,,,,,,,
3996.92,-0.00086,214.47,,,,,,,
3996.97,-0.00081,217.0,,,,,,,
3997.0,-0.00076,218.9,,,,,,,
3997.06,-0.00071,220.95,,,,,,,
3997.1,-0.00066,215.83,,,,,,,
3997.11,-0.0006,216.1,,,,,,,
3997.11,-0.00053,216.14,,,,,,,
3997.11,-0.00046,216.36,,,,,,,
3997.12,-0.00041,216.57,,,,,,,
3997.41,-0.00036,202.53,,,,,,,
3997.49,-0.0003,206.05,,,,,,,
3997.54,-0.00025,210.14,,,,,,,
7984.37,0.00488,242.42,,,,,,,
7984.44,0.00493,242.51,,,,,,,
7984.61,0.00488,218.37,,,,,,,
7984.66,0.00483,208.54,,,,,,,
7984.7,0.00477,199.69,,,,,,,
7984.75,0.00472,190.75,,,,,,,
7984.76,0.00471,187.36,,,,,,,
7984.79,0.00467,182.16,,,,,,,
7984.84,0.00462,173.48,,,,,,,
7984.89,0.00457,166.18,,,,,,,
7984.93,0.00452,159.06,,,,,,,
7984.99,0.00447,151.41,,,,,,,
7985.04,0.00442,144.28,,,,,,,
7985.09,0.00437,137.0,,,,,,,
7985.15,0.00432,129.57,,,,,,,
7985.21,0.00427,122.28,,,,,,,
7985.26,0.00422,115.18,,,,,,,
7985.31,0.00417,108.43,,,,,,,
7985.37,0.00412,102.09,,,,,,,
7985.42,0.00407,94.86,,,,,,,
7985.48,0.00402,87.48,,,,,,,
7985.54,0.00397,80.53,,,,,,,
7985.6,0.00392,72.99,,,,,,,
7985.65,0.00387,66.8,,,,,,,
7985.7,0.00382,59.88,,,,,,,
7985.75,0.00377,53.73,,,,,,,
7985.76,0.00375,52.25,,,,,,,
7985.8,0.00372,47.49,,,,,,,
7985.86,0.00367,41.43,,,,,,,
7985.91,0.00361,35.47,,,,,,,
7985.96,0.00356,29.3,,,,,,,
7986.02,0.00351,23.46,,,,,,,
7986.08,0.00346,17.4,,,,,,,
7986.13,0.00341,11.33,,,,,,,
7986.19,0.00336,5.13,,,,,,,
7986.25,0.00331,-0.54,,,,,,,
7986.3,0.00326,-6.77,,,,,,,
7986.36,0.00321,-12.44,,,,,,,
7986.42,0.00316,-17.79,,,,,,,
7986.61,0.00311,-20.66,,,,,,,
7986.71,0.00306,-26.12,,,,,,,
7986.76,0.00302,-30.3,,,,,,,
7986.78,0.00301,-31.81,,,,,,,
7986.83,0.00296,-37.83,,,,,,,
7986.88,0.00291,-44.16,,,,,,,
7986.91,0.00286,-51.42,,,,,,,
7986.93,0.00281,-57.99,,,,,,,
7986.96,0.00275,-64.43,,,,,,,
7986.98,0.0027,-70.72,,,,,,,
7987.01,0.00265,-76.68,,,,,,,
7987.03,0.0026,-82.72,,,,,,,
7987.06,0.00255,-88.36,,,,,,,
7987.09,0.0025,-93.62,,,,,,,
7987.12,0.00245,-98.76,,,,,,,
7987.16,0.0024,-103.4,,,,,,,
7987.2,0.00234,-108.3,,,,,,,
7987.24,0.00229,-112.6,,,,,,,
7987.28,0.00224,-116.5,,,,,,,
7987.32,0.00219,-120.1,,,,,,,
7987.37,0.00214,-123.5,,,,,,,
7987.42,0.00209,-126.7,,,,,,,
7987.47,0.00204,-130.1,,,,,,,
7987.52,0.00199,-133.3,,,,,,,
7987.57,0.00194,-136.4,,,,,,,
7987.63,0.00189,-140.2,,,,,,,
7987.69,0.00184,-144.1,,,,,,,
7987.75,0.00179,-148.3,,,,,,,
7987.76,0.00178,-149.3,,,,,,,
7987.8,0.00174,-152.5,,,,,,,
7987.85,0.00169,-156.0,,,,,,,
7987.9,0.00164,-159.5,,,,,,,
7987.95,0.00159,-163.0,,,,,,,
7988.0,0.00154,-166.6,,,,,,,
7988.04,0.00149,-169.8,,,,,,,
7988.1,0.00143,-173.0,,,,,,,
7988.14,0.00138,-175.9,,,,,,,
7988.19,0.00133,-178.9,,,,,,,
7988.24,0.00128,-181.6,,,,,,,
7988.29,0.00123,-184.4,,,,,,,
7988.34,0.00118,-187.1,,,,,,,
7988.39,0.00113,-189.7,,,,,,,
7988.44,0.00108,-192.3,,,,,,,
7988.49,0.00103,-194.6,,,,,,,
7988.54,0.00098,-197.0,,,,,,,
7988.59,0.00093,-199.1,,,,,,,
7988.64,0.00088,-201.2,,,,,,,
7988.69,0.00083,-203.4,,,,,,,
7988.74,0.00078,-205.7,,,,,,,
7988.76,0.00076,-206.6,,,,,,,
7988.79,0.00073,-208.0,,,,,,,
7988.85,0.00068,-210.3,,,,,,,
7988.89,0.00063,-212.5,,,,,,,
7988.94,0.00058,-214.7,,,,,,,
7988.99,0.00053,-216.9,,,,,,,
7989.03,0.00048,-218.8,,,,,,,
7989.08,0.00043,-220.5,,,,,,,
7989.13,0.00038,-222.1,,,,,,,
7989.19,0.00033,-223.8,,,,,,,
7989.24,0.00028,-225.4,,,,,,,
7989.26,0.00021,-222.3,,,,,,,
7989.26,0.00016,-222.4,,,,,,,
7989.27,0.0001,-222.5,,,,,,,
7989.27,3e-05,-222.6,,,,,,,
7989.27,-2e-05,-222.6,,,,,,,
7989.62,-7e-05,-201.7,,,,,,,
7989.67,-0.00012,-205.8,,,,,,,
7989.72,-0.00017,-210.2,,,,,,,
7989.76,-0.00021,-213.6,,,,,,,
7989.77,-0.00022,-214.2,,,,,,,
7989.81,-0.00027,-217.8,,,,,,,
7989.86,-0.00032,-221.4,,,,,,,
7989.91,-0.00037,-224.6,,,,,,,
7989.95,-0.00042,-227.4,,,,,,,
7990.0,-0.00047,-230.1,,,,,,,
7990.05,-0.00052,-232.5,,,,,,,
7990.1,-0.00057,-234.9,,,,,,,
7990.15,-0.00062,-237.2,,,,,,,
7990.2,-0.00067,-239.4,,,,,,,
7990.25,-0.00072,-241.6,,,,,,,
7990.33,-0.00077,-239.0,,,,,,,
7990.37,-0.00082,-241.7,,,,,,,
7990.41,-0.00087,-244.4,,,,,,,
7990.45,-0.00092,-246.6,,,,,,,
7990.49,-0.00098,-248.8,,,,,,,
7990.54,-0.00103,-250.4,,,,,,,
7990.55,-0.00109,-238.3,,,,,,,
7990.55,-0.00117,-238.2,,,,,,,
7990.56,-0.00122,-238.2,,,,,,,
7990.56,-0.00129,-238.5,,,,,,,
7990.76,-0.00132,-220.8,,,,,,,
7990.84,-0.00134,-218.8,,,,,,,
7990.92,-0.00139,-220.8,,,,,,,
7990.97,-0.00144,-224.4,,,,,,,
7991.02,-0.00149,-228.0,,,,,,,
7991.07,-0.00154,-231.5,,,,,,,
7991.12,-0.00159,-235.0,,,,,,,
7991.17,-0.00164,-238.2,,,,,,,
7991.21,-0.00169,-241.4,,,,,,,
7991.26,-0.00174,-243.9,,,,,,,
7991.3,-0.00179,-246.3,,,,,,,
7991.35,-0.00184,-248.4,,,,,,,
7991.4,-0.00189,-250.3,,,,,,,
7991.45,-0.00194,-252.4,,,,,,,
7991.5,-0.00199,-254.3,,,,,,,
7991.55,-0.00204,-256.1,,,,,,,
7991.58,-0.00211,-249.2,,,,,,,
7991.59,-0.00218,-249.4,,,,,,,
7991.59,-0.00228,-249.5,,,,,,,
7991.59,-0.00233,-249.6,,,,,,,
7991.59,-0.0024,-249.5,,,,,,,
7991.59,-0.00246,-249.5,,,,,,,
7991.59,-0.00251,-249.5,,,,,,,
7991.59,-0.00256,-249.6,,,,,,,
7991.59,-0.00264,-249.8,,,,,,,
7991.68,-0.00259,-233.5,,,,,,,
7991.7,-0.00254,-224.0,,,,,,,
7991.73,-0.00249,-214.6,,,,,,,
7991.76,-0.00244,-205.7,,,,,,,
7991.76,-0.00244,-205.5,,,,,,,
7991.81,-0.00239,-196.5,,,,,,,
7992.0,-0.00244,-198.8,,,,,,,
7992.05,-0.00249,-204.0,,,,,,,
7992.09,-0.00254,-209.6,,,,,,,
7992.14,-0.00259,-214.7,,,,,,,
7992.19,-0.00264,-219.9,,,,,,,
7992.24,-0.00269,-224.7,,,,,,,
7992.29,-0.00274,-229.2,,,,,,,
7992.33,-0.00279,-233.1,,,,,,,
7992.38,-0.00284,-237.0,,,,,,,
7992.43,-0.00289,-240.5,,,,,,,
7992.48,-0.00294,-243.8,,,,,,,
7992.52,-0.00299,-246.8,,,,,,,
7992.57,-0.00304,-249.7,,,,,,,
7992.62,-0.0031,-252.3,,,,,,,
7992.67,-0.00315,-254.9,,,,,,,
7992.72,-0.0032,-257.3,,,,,,,
7992.76,-0.00325,-259.3,,,,,,,
7992.77,-0.00325,-259.4,,,,,,,
7992.81,-0.0033,-261.3,,,,,,,
7992.85,-0.00335,-261.9,,,,,,,
7992.91,-0.0034,-263.0,,,,,,,
7992.96,-0.00345,-264.6,,,,,,,
7993.0,-0.0035,-266.0,,,,,,,
7993.05,-0.00355,-267.3,,,,,,,
7993.1,-0.0036,-268.5,,,,,,,
7993.13,-0.00366,-261.6,,,,,,,
7993.14,-0.00371,-261.8,,,,,,,
7993.14,-0.00377,-261.8,,,,,,,
7993.14,-0.00383,-261.8,,,,,,,
7993.14,-0.00388,-261.8,,,,,,,
7993.15,-0.00393,-261.9,,,,,,,
7993.5,-0.00398,-238.6,,,,,,,
7993.56,-0.00403,-242.1,,,,,,,
7993.61,-0.00408,-245.7,,,,,,,
7993.66,-0.00413,-249.0,,,,,,,
7993.7,-0.00418,-252.2,,,,,,,
7993.75,-0.00423,-255.2,,,,,,,
7993.76,-0.00425,-256.1,,,,,,,
7993.79,-0.00428,-257.8,,,,,,,
7993.84,-0.00433,-260.2,,,,,,,
7993.89,-0.00438,-262.7,,,,,,,
7993.95,-0.00444,-265.1,,,,,,,
7994.0,-0.00449,-267.2,,,,,,,
7994.04,-0.00454,-269.2,,,,,,,
7994.09,-0.00459,-271.0,,,,,,,
7994.13,-0.00464,-272.6,,,,,,,
7994.18,-0.00469,-274.0,,,,,,,
7994.22,-0.00474,-275.1,,,,,,,
7994.32,-0.00479,-270.6,,,,,,,
7994.36,-0.00484,-272.9,,,,,,,
7994.4,-0.00489,-274.9,,,,,,,
7994.41,-0.00496,-268.6,,,,,,,
7994.41,-0.00503,-268.7,,,,,,,
7994.42,-0.00511,-268.5,,,,,,,
7994.42,-0.00521,-268.5,,,,,,,
7994.42,-0.00529,-268.5,,,,,,,
7994.42,-0.00535,-268.4,,,,,,,
7994.49,-0.0053,-249.8,,,,,,,
7994.51,-0.00525,-239.5,,,,,,,
7994.53,-0.0052,-230.3,,,,,,,
7994.55,-0.00515,-221.3,,,,,,,
7994.57,-0.0051,-212.5,,,,,,,
7994.59,-0.00505,-204.2,,,,,,,
7994.6,-0.005,-196.0,,,,,,,
7994.62,-0.00495,-188.2,,,,,,,
7994.65,-0.00489,-180.2,,,,,,,
7994.67,-0.00484,-172.5,,,,,,,
7994.69,-0.00479,-165.3,,,,,,,
7994.72,-0.00474,-158.0,,,,,,,
7994.76,-0.00469,-150.5,,,,,,,
7994.76,-0.00469,-150.1,,,,,,,
7994.8,-0.00464,-143.2,,,,,,,
7994.85,-0.00459,-135.8,,,,,,,
7994.9,-0.00454,-129.1,,,,,,,
7994.96,-0.00449,-122.1,,,,,,,
7995.02,-0.00444,-114.7,,,,,,,
7995.08,-0.00439,-107.3,,,,,,,
7995.13,-0.00434,-100.0,,,,,,,
7995.19,-0.00429,-92.63,,,,,,,
7995.25,-0.00424,-85.07,,,,,,,
7995.31,-0.00419,-77.11,,,,,,,
7995.36,-0.00413,-69.53,,,,,,,
7995.41,-0.00408,-62.79,,,,,,,
7995.47,-0.00403,-55.62,,,,,,,
7995.52,-0.00398,-48.45,,,,,,,
7995.58,-0.00393,-41.18,,,,,,,
7995.63,-0.00388,-34.39,,,,,,,
7995.69,-0.00383,-27.3,,,,,,,
7995.75,-0.00378,-20.33,,,,,,,
7995.76,-0.00377,-18.43,,,,,,,
7995.8,-0.00373,-13.85,,,,,,,
7995.85,-0.00368,-7.16,,,,,,,
7995.91,-0.00363,-0.45,,,,,,,
7995.96,-0.00358,5.64,,,,,,,
7996.01,-0.00353,11.51,,,,,,,
7996.06,-0.00348,17.27,,,,,,,
7996.12,-0.00343,23.24,,,,,,,
7996.2,-0.00338,27.77,,,,,,,
7996.29,-0.00333,33.63,,,,,,,
7996.34,-0.00328,39.67,,,,,,,
7996.38,-0.00323,45.32,,,,,,,
7996.44,-0.00318,51.09,,,,,,,
7996.51,-0.00313,56.42,,,,,,,
7996.58,-0.00308,61.78,,,,,,,
7996.65,-0.00303,67.42,,,,,,,
7996.71,-0.00298,72.42,,,,,,,
7996.76,-0.00293,77.07,,,,,,,
7996.77,-0.00292,77.62,,,,,,,
7996.84,-0.00287,83.23,,,,,,,
7996.89,-0.00282,88.31,,,,,,,
7996.94,-0.00277,93.63,,,,,,,
7996.97,-0.00272,99.46,,,,,,,
7997.0,-0.00267,104.84,,,,,,,
7997.03,-0.00262,110.13,,,,,,,
7997.06,-0.00257,115.25,,,,,,,
7997.09,-0.00252,120.08,,,,,,,
7997.12,-0.00247,124.62,,,,,,,
7997.15,-0.00242,129.07,,,,,,,
7997.19,-0.00237,133.02,,,,,,,
7997.22,-0.00232,136.86,,,,,,,
7997.26,-0.00227,140.23,,,,,,,
7997.31,-0.00222,144.03,,,,,,,
7997.36,-0.00216,147.43,,,,,,,
7997.41,-0.00211,150.57,,,,,,,
7997.46,-0.00206,153.94,,,,,,,
7997.52,-0.00201,157.38,,,,,,,
7997.57,-0.00196,160.68,,,,,,,
7997.62,-0.00191,163.92,,,,,,,
7997.67,-0.00186,167.29,,,,,,,
7997.72,-0.00181,170.71,,,,,,,
7997.76,-0.00176,173.42,,,,,,,
7997.77,-0.00176,173.69,,,,,,,
7997.82,-0.00171,176.78,,,,,,,
7997.87,-0.00166,179.8,,,,,,,
7997.92,-0.00161,182.5,,,,,,,
7997.97,-0.00156,185.2,,,,,,,
7998.01,-0.00151,187.85,,,,,,,
7998.06,-0.00146,190.48,,,,,,,
7998.12,-0.00141,193.11,,,,,,,
7998.17,-0.00136,195.7,,,,,,,
7998.22,-0.00131,198.2,,,,,,,
7998.27,-0.00125,200.78,,,,,,,
7998.32,-0.0012,203.17,,,,,,,
7998.37,-0.00115,205.57,,,,,,,
7998.41,-0.0011,207.77,,,,,,,
7998.46,-0.00105,209.67,,,,,,,
7998.51,-0.001,211.69,,,,,,,
7998.56,-0.00095,213.55,,,,,,,
7998.61,-0.0009,215.41,,,,,,,
7998.66,-0.00085,217.17,,,,,,,
7998.71,-0.0008,218.71,,,,,,,
7998.76,-0.00075,220.3,,,,,,,
7998.76,-0.00075,220.4,,,,,,,
7998.81,-0.0007,221.94,,,,,,,
7998.86,-0.00065,223.51,,,,,,,
7998.91,-0.0006,224.88,,,,,,,
7998.96,-0.00055,226.38,,,,,,,
7999.01,-0.0005,227.63,,,,,,,
7999.06,-0.00045,229.16,,,,,,,
7999.11,-0.0004,230.62,,,,,,,
7999.16,-0.00035,231.92,,,,,,,
7999.2,-0.00029,224.35,,,,,,,
7999.2,-0.00022,224.35,,,,,,,
7999.21,-0.00015,224.31,,,,,,,
7999.21,-7e-05,224.27,,,,,,,
7999.21,1e-05,224.33,,,,,,,
7999.21,7e-05,224.48,,,,,,,
7999.34,2e-05,202.79,,,,,,,
7999.39,-3e-05,193.7,,,,,,,
7999.59,2e-05,193.94,,,,,,,
7999.63,7e-05,198.21,,,,,,,
7999.68,0.00012,202.75,,,,,,,
7999.73,0.00017,207.19,,,,,,,
7999.76,0.00021,210.51,,,,,,,
7999.77,0.00022,211.46,,,,,,,
7999.82,0.00027,215.18,,,,,,,
7999.87,0.00032,218.81,,,,,,,
7999.92,0.00037,222.39,,,,,,,
7999.97,0.00042,225.68,,,,,,,
8000.02,0.00047,228.59,,,,,,,
8000.07,0.00053,231.22,,,,,,,
8000.11,0.00058,233.77,,,,,,,
8000.16,0.00063,235.94,,,,,,,
8000.21,0.00068,238.01,,,,,,,
8000.25,0.00073,239.84,,,,,,,
8000.3,0.00078,241.51,,,,,,,
8000.35,0.00083,243.03,,,,,,,
8000.4,0.00088,244.5,,,,,,,
8000.45,0.00093,245.8,,,,,,,
8000.5,0.00098,247.07,,,,,,,
8000.55,0.00103,248.27,,,,,,,
8000.6,0.00108,249.41,,,,,,,
8000.65,0.00113,250.49,,,,,,,
8000.69,0.00118,251.44,,,,,,,
8000.75,0.00123,252.34,,,,,,,
8000.76,0.00125,252.57,,,,,,,
8000.79,0.00128,253.03,,,,,,,
8000.84,0.00133,253.82,,,,,,,
8000.89,0.00139,254.58,,,,,,,
8000.94,0.00144,255.35,,,,,,,
8000.99,0.00149,256.23,,,,,,,
8001.03,0.00155,239.74,,,,,,,
8001.03,0.0016,239.17,,,,,,,
8001.04,0.00169,239.63,,,,,,,
8001.04,0.00176,239.57,,,,,,,
8001.04,0.00183,239.54,,,,,,,
8001.04,0.0019,239.57,,,,,,,
8001.04,0.00197,239.42,,,,,,,
8001.04,0.00204,239.42,,,,,,,
8001.04,0.0021,239.47,,,,,,,
8001.04,0.00215,239.52,,,,,,,
8001.04,0.00222,239.65,,,,,,,
8001.05,0.00217,239.7,,,,,,,
8001.12,0.00212,219.67,,,,,,,
8001.14,0.00206,210.25,,,,,,,
8001.17,0.00201,201.58,,,,,,,
8001.19,0.00196,193.5,,,,,,,
8001.21,0.00191,185.47,,,,,,,
8001.24,0.00186,177.85,,,,,,,
8001.32,0.00181,170.41,,,,,,,
8001.43,0.00186,177.05,,,,,,,
8001.48,0.00191,183.51,,,,,,,
8001.53,0.00196,189.73,,,,,,,
8001.57,0.00201,195.54,,,,,,,
8001.62,0.00206,201.05,,,,,,,
8001.66,0.00211,206.47,,,,,,,
8001.72,0.00216,211.8,,,,,,,
8001.76,0.00221,216.35,,,,,,,
8001.77,0.00221,216.8,,,,,,,
8001.82,0.00226,221.54,,,,,,,
8001.87,0.00231,225.95,,,,,,,
8001.92,0.00237,230.09,,,,,,,
8001.97,0.00242,234.16,,,,,,,
8002.01,0.00247,237.82,,,,,,,
8002.06,0.00252,241.38,,,,,,,
8002.11,0.00257,244.69,,,,,,,
8002.15,0.00262,247.61,,,,,,,
8002.2,0.00267,250.12,,,,,,,
8002.25,0.00272,252.39,,,,,,,
8002.29,0.00277,254.31,,,,,,,
8002.33,0.00282,256.11,,,,,,,
8002.38,0.00287,257.6,,,,,,,
8002.43,0.00292,259.0,,,,,,,
8002.48,0.00297,260.12,,,,,,,
8002.52,0.00302,261.04,,,,,,,
8002.57,0.00307,261.83,,,,,,,
8002.62,0.00312,262.34,,,,,,,
8002.67,0.00317,262.81,,,,,,,
8002.72,0.00322,263.3,,,,,,,
8002.76,0.00327,263.74,,,,,,,
8002.77,0.00328,263.78,,,,,,,
8002.82,0.00333,264.32,,,,,,,
8002.87,0.00338,264.74,,,,,,,
8002.92,0.00343,265.03,,,,,,,
8002.97,0.00348,265.33,,,,,,,
8003.02,0.00353,265.78,,,,,,,
8003.07,0.00358,266.3,,,,,,,
8003.12,0.00363,266.68,,,,,,,
8003.17,0.00368,267.11,,,,,,,
8003.22,0.00373,267.6,,,,,,,
8003.27,0.00378,268.03,,,,,,,
8003.32,0.00383,268.31,,,,,,,
8003.36,0.00388,268.52,,,,,,,
8003.4,0.00393,268.67,,,,,,,
8003.45,0.00398,268.59,,,,,,,
8003.5,0.00404,268.2,,,,,,,
8003.55,0.00409,267.95,,,,,,,
8003.61,0.00414,267.56,,,,,,,
8003.66,0.00419,267.22,,,,,,,
8003.71,0.00424,266.99,,,,,,,
8003.75,0.00429,266.76,,,,,,,
8003.76,0.0043,266.72,,,,,,,
8003.81,0.00434,266.46,,,,,,,
8003.86,0.00439,266.33,,,,,,,
8003.91,0.00444,266.39,,,,,,,
8003.96,0.00449,266.4,,,,,,,
8004.01,0.00454,266.51,,,,,,,
8004.06,0.00459,266.49,,,,,,,
8004.11,0.00464,266.56,,,,,,,
8004.15,0.00469,266.53,,,,,,,
8004.2,0.00474,266.2,,,,,,,
8004.25,0.00479,265.92,,,,,,,
8004.3,0.00484,265.52,,,,,,,
9980.21,-0.00017,229.0,,,,,,,
9980.26,-0.00012,230.2,,,,,,,
9980.31,-7e-05,231.21,,,,,,,
9980.36,-2e-05,232.01,,,,,,,
9980.39,4e-05,224.22,,,,,,,
9980.39,0.00012,224.17,,,,,,,
9980.39,0.00022,224.25,,,,,,,
9980.39,0.00028,224.26,,,,,,,
9980.4,0.00034,224.26,,,,,,,
9980.4,0.0004,224.21,,,,,,,
9980.4,0.00046,224.24,,,,,,,
9980.4,0.00051,224.26,,,,,,,
9980.4,0.00059,224.4,,,,,,,
9980.4,0.00065,224.43,,,,,,,
9980.41,0.0006,224.36,,,,,,,
9980.48,0.00055,204.95,,,,,,,
9980.51,0.0005,195.25,,,,,,,
9980.53,0.00044,186.55,,,,,,,
9980.56,0.00039,178.24,,,,,,,
9980.59,0.00034,170.26,,,,,,,
9980.65,0.00029,161.84,,,,,,,
9980.76,0.00033,164.48,,,,,,,
9980.77,0.00034,165.43,,,,,,,
9980.82,0.00039,170.67,,,,,,,
9980.87,0.00044,175.51,,,,,,,
9980.91,0.00049,180.17,,,,,,,
9980.96,0.00054,184.88,,,,,,,
9981.01,0.00059,189.69,,,,,,,
9981.07,0.00065,194.51,,,,,,,
9981.12,0.0007,198.87,,,,,,,
9981.17,0.00075,203.35,,,,,,,
9981.23,0.0008,207.62,,,,,,,
9981.27,0.00085,211.46,,,,,,,
9981.32,0.0009,215.17,,,,,,,
9981.38,0.00095,219.13,,,,,,,
9981.43,0.001,222.87,,,,,,,
9981.49,0.00105,227.01,,,,,,,
9981.54,0.0011,230.75,,,,,,,
9981.59,0.00115,234.43,,,,,,,
9981.64,0.0012,238.07,,,,,,,
9981.69,0.00125,241.52,,,,,,,
9981.73,0.0013,244.49,,,,,,,
9981.76,0.00134,246.43,,,,,,,
9981.77,0.00135,247.14,,,,,,,
9981.82,0.0014,249.34,,,,,,,
9981.86,0.00146,251.35,,,,,,,
9981.89,0.00151,237.42,,,,,,,
9981.9,0.00156,237.81,,,,,,,
9981.9,0.00162,237.73,,,,,,,
9981.9,0.00167,238.03,,,,,,,
9982.03,0.00172,234.44,,,,,,,
9982.14,0.00177,230.88,,,,,,,
9982.22,0.00182,231.57,,,,,,,
9982.28,0.00187,234.09,,,,,,,
9982.33,0.00193,236.68,,,,,,,
9982.38,0.00198,239.56,,,,,,,
9982.43,0.00203,242.31,,,,,,,
9982.48,0.00208,244.82,,,,,,,
9982.52,0.00213,247.06,,,,,,,
9982.57,0.00218,249.01,,,,,,,
9982.61,0.00223,250.65,,,,,,,
9982.66,0.00228,252.11,,,,,,,
9982.71,0.00233,253.38,,,,,,,
9982.75,0.00238,254.51,,,,,,,
9982.76,0.00239,254.73,,,,,,,
9982.8,0.00243,255.42,,,,,,,
9982.85,0.00248,256.27,,,,,,,
9982.9,0.00253,256.94,,,,,,,
9982.95,0.00258,257.49,,,,,,,
9983.0,0.00263,258.05,,,,,,,
9983.03,0.00269,249.39,,,,,,,
9983.03,0.00275,249.37,,,,,,,
9983.04,0.0028,249.46,,,,,,,
9983.14,0.00285,246.66,,,,,,,
9983.25,0.0029,243.02,,,,,,,
9983.33,0.00295,242.82,,,,,,,
9983.38,0.003,244.52,,,,,,,
9983.43,0.00305,246.54,,,,,,,
9983.48,0.0031,248.51,,,,,,,
9983.52,0.00315,250.42,,,,,,,
9983.57,0.0032,252.26,,,,,,,
9983.62,0.00325,253.79,,,,,,,
9983.67,0.0033,255.12,,,,,,,
9983.71,0.00335,256.44,,,,,,,
9983.76,0.0034,257.42,,,,,,,
9983.76,0.0034,257.44,,,,,,,
9983.81,0.00345,258.21,,,,,,,
9983.87,0.0035,259.07,,,,,,,
9983.92,0.00355,259.88,,,,,,,
9983.97,0.00361,260.86,,,,,,,
9984.02,0.00366,261.76,,,,,,,
9984.06,0.00371,262.52,,,,,,,
9984.11,0.00376,263.13,,,,,,,
9984.15,0.00381,263.7,,,,,,,
9984.2,0.00386,263.86,,,,,,,
9984.25,0.00391,263.91,,,,,,,
9984.3,0.00396,263.81,,,,,,,
9984.35,0.00401,263.5,,,,,,,
9984.39,0.00406,263.17,,,,,,,
9984.44,0.00411,262.94,,,,,,,
9984.49,0.00416,262.52,,,,,,,
9984.54,0.00421,262.22,,,,,,,
9984.59,0.00426,261.78,,,,,,,
9984.64,0.00431,261.42,,,,,,,
9984.7,0.00436,261.19,,,,,,,
9984.75,0.00442,261.06,,,,,,,
9984.76,0.00443,261.01,,,,,,,
9984.8,0.00447,260.96,,,,,,,
9984.85,0.00452,260.94,,,,,,,
9984.89,0.00457,260.86,,,,,,,
9984.95,0.00462,260.84,,,,,,,
9985.0,0.00467,260.87,,,,,,,
9985.05,0.00472,260.89,,,,,,,
9985.1,0.00477,261.07,,,,,,,
9985.15,0.00482,261.29,,,,,,,
9985.2,0.00487,261.39,,,,,,,
9985.25,0.00492,261.42,,,,,,,
9985.32,0.00497,258.65,,,,,,,
9985.46,0.00492,233.63,,,,,,,
9985.5,0.00487,223.09,,,,,,,
9985.54,0.00482,213.98,,,,,,,
9985.58,0.00477,205.33,,,,,,,
9985.63,0.00472,196.89,,,,,,,
9985.67,0.00467,188.59,,,,,,,
9985.72,0.00462,180.37,,,,,,,
9985.76,0.00457,173.49,,,,,,,
9985.77,0.00456,172.47,,,,,,,
9985.82,0.00451,164.97,,,,,,,
9985.87,0.00446,157.45,,,,,,,
9985.93,0.00441,150.06,,,,,,,
9985.98,0.00436,142.89,,,,,,,
9986.04,0.00431,135.92,,,,,,,
9986.09,0.00426,128.63,,,,,,,
9986.15,0.00421,121.34,,,,,,,
9986.21,0.00416,114.03,,,,,,,
9986.26,0.00411,106.89,,,,,,,
9986.32,0.00406,98.79,,,,,,,
9986.38,0.00401,91.11,,,,,,,
9986.43,0.00396,84.05,,,,,,,
9986.49,0.00391,77.02,,,,,,,
9986.54,0.00386,69.84,,,,,,,
9986.59,0.00381,63.31,,,,,,,
9986.64,0.00376,57.07,,,,,,,
9986.69,0.00371,50.64,,,,,,,
9986.75,0.00366,44.53,,,,,,,
9986.76,0.00364,42.81,,,,,,,
9986.8,0.0036,38.17,,,,,,,
9986.86,0.00355,31.4,,,,,,,
9986.92,0.0035,24.97,,,,,,,
9986.97,0.00345,18.77,,,,,,,
9987.03,0.0034,12.62,,,,,,,
9987.08,0.00335,6.2,,,,,,,
9987.14,0.0033,-0.26,,,,,,,
9987.19,0.00325,-6.12,,,,,,,
9987.25,0.0032,-11.83,,,,,,,
9987.3,0.00315,-17.31,,,,,,,
9987.48,0.0031,-20.12,,,,,,,
9987.59,0.00305,-24.85,,,,,,,
9987.66,0.003,-29.67,,,,,,,
9987.72,0.00295,-35.29,,,,,,,
9987.76,0.0029,-41.03,,,,,,,
9987.77,0.0029,-41.36,,,,,,,
9987.8,0.00285,-47.61,,,,,,,
9987.83,0.0028,-54.6,,,,,,,
9987.85,0.00275,-60.73,,,,,,,
9987.87,0.0027,-66.71,,,,,,,
9987.89,0.00265,-72.41,,,,,,,
9987.92,0.00259,-77.98,,,,,,,
9987.95,0.00254,-83.36,,,,,,,
9987.98,0.00249,-88.12,,,,,,,
9988.01,0.00244,-92.91,,,,,,,
9988.04,0.00239,-97.31,,,,,,,
9988.07,0.00234,-101.5,,,,,,,
9988.11,0.00229,-105.7,,,,,,,
9988.16,0.00224,-109.8,,,,,,,
9988.21,0.00219,-113.4,,,,,,,
9988.26,0.00214,-117.3,,,,,,,
9988.31,0.00209,-121.0,,,,,,,
9988.37,0.00204,-124.7,,,,,,,
9988.42,0.00199,-128.3,,,,,,,
9988.46,0.00194,-131.6,,,,,,,
9988.51,0.00189,-134.9,,,,,,,
9988.56,0.00184,-137.9,,,,,,,
9988.6,0.00179,-140.6,,,,,,,
9988.64,0.00174,-143.0,,,,,,,
9988.69,0.00169,-145.3,,,,,,,
9988.75,0.00164,-147.9,,,,,,,
9988.76,0.00162,-148.5,,,,,,,
9988.81,0.00158,-150.6,,,,,,,
9988.86,0.00153,-153.2,,,,,,,
9988.92,0.00148,-156.1,,,,,,,
9988.97,0.00143,-159.1,,,,,,,
9989.02,0.00138,-161.7,,,,,,,
9989.06,0.00133,-164.6,,,,,,,
9989.11,0.00128,-167.4,,,,,,,
9989.16,0.00123,-169.7,,,,,,,
9989.21,0.00118,-172.2,,,,,,,
9989.26,0.00113,-174.5,,,,,,,
9989.31,0.00108,-176.6,,,,,,,
9989.36,0.00103,-178.4,,,,,,,
9989.41,0.00098,-180.5,,,,,,,
9989.46,0.00093,-182.7,,,,,,,
9989.52,0.00088,-184.9,,,,,,,
9989.57,0.00083,-187.3,,,,,,,
9989.62,0.00078,-189.6,,,,,,,
9989.67,0.00073,-192.1,,,,,,,
9989.73,0.00068,-194.5,,,,,,,
9989.76,0.00064,-196.3,,,,,,,
9989.78,0.00063,-197.0,,,,,,,
9989.83,0.00058,-199.5,,,,,,,
9989.88,0.00053,-202.0,,,,,,,
9989.93,0.00047,-204.6,,,,,,,
9989.98,0.00042,-207.4,,,,,,,
9990.03,0.00037,-210.0,,,,,,,
9990.08,0.00032,-212.3,,,,,,,
9990.13,0.00027,-214.6,,,,,,,
9990.18,0.00022,-216.9,,,,,,,
9990.23,0.00017,-219.0,,,,,,,
9990.28,0.00012,-221.0,,,,,,,
9990.32,7e-05,-222.8,,,,,,,
9990.38,2e-05,-224.6,,,,,,,
9990.43,-3e-05,-226.3,,,,,,,
9990.47,-8e-05,-227.9,,,,,,,
9990.52,-0.00013,-229.5,,,,,,,
9990.57,-0.00018,-231.0,,,,,,,
9990.62,-0.00023,-232.4,,,,,,,
9990.68,-0.00028,-233.8,,,,,,,
9990.72,-0.00033,-235.1,,,,,,,
9990.76,-0.00038,-236.4,,,,,,,
9990.77,-0.00038,-236.5,,,,,,,
9990.81,-0.00044,-237.6,,,,,,,
9990.86,-0.00049,-238.5,,,,,,,
9990.88,-0.00055,-229.6,,,,,,,
9990.88,-0.00061,-229.8,,,,,,,
9990.88,-0.00069,-229.8,,,,,,,
9990.89,-0.00078,-229.7,,,,,,,
9990.89,-0.00087,-229.7,,,,,,,
9990.89,-0.00093,-229.8,,,,,,,
9991.01,-0.00088,-206.3,,,,,,,
9991.05,-0.00083,-196.7,,,,,,,
9991.13,-0.00078,-185.6,,,,,,,
9991.25,-0.00083,-186.8,,,,,,,
9991.31,-0.00088,-191.3,,,,,,,
9991.36,-0.00093,-196.0,,,,,,,
9991.4,-0.00098,-200.2,,,,,,,
9991.45,-0.00103,-204.4,,,,,,,
9991.5,-0.00108,-208.8,,,,,,,
9991.55,-0.00113,-212.8,,,,,,,
9991.61,-0.00118,-217.1,,,,,,,
9991.66,-0.00123,-220.8,,,,,,,
9991.7,-0.00128,-224.0,,,,,,,
9991.75,-0.00133,-227.2,,,,,,,
9991.76,-0.00135,-228.2,,,,,,,
9991.8,-0.00138,-230.4,,,,,,,
9991.85,-0.00143,-233.3,,,,,,,
9991.89,-0.00148,-236.1,,,,,,,
9991.94,-0.00153,-238.5,,,,,,,
9991.99,-0.00158,-240.8,,,,,,,
9992.03,-0.00163,-243.0,,,,,,,
9992.08,-0.00168,-244.7,,,,,,,
9992.12,-0.00173,-246.4,,,,,,,
9992.17,-0.00178,-247.9,,,,,,,
9992.2,-0.00183,-241.8,,,,,,,
9992.26,-0.00188,-243.3,,,,,,,
9992.31,-0.00194,-244.7,,,,,,,
9992.36,-0.00199,-245.8,,,,,,,
9992.41,-0.00204,-246.9,,,,,,,
9992.46,-0.00209,-248.0,,,,,,,
9992.51,-0.00214,-249.0,,,,,,,
9992.56,-0.00219,-249.9,,,,,,,
9992.62,-0.00224,-251.0,,,,,,,
9992.67,-0.00229,-252.2,,,,,,,
9992.72,-0.00234,-253.1,,,,,,,
9992.76,-0.00239,-254.0,,,,,,,
9992.77,-0.00239,-254.2,,,,,,,
9992.82,-0.00244,-255.3,,,,,,,
9992.87,-0.00249,-256.3,,,,,,,
9992.92,-0.00254,-257.2,,,,,,,
9992.97,-0.00259,-258.1,,,,,,,
9993.01,-0.00264,-259.0,,,,,,,
9993.05,-0.0027,-250.0,,,,,,,
9993.05,-0.00276,-250.1,,,,,,,
9993.06,-0.00281,-250.3,,,,,,,
9993.14,-0.00287,-248.6,,,,,,,
9993.24,-0.00292,-243.9,,,,,,,
9993.33,-0.00297,-242.7,,,,,,,
9993.4,-0.00302,-243.5,,,,,,,
9993.45,-0.00307,-245.5,,,,,,,
9993.51,-0.00312,-247.8,,,,,,,
9993.55,-0.00317,-250.1,,,,,,,
9993.6,-0.00322,-252.3,,,,,,,
9993.65,-0.00327,-254.2,,,,,,,
9993.69,-0.00332,-256.0,,,,,,,
9993.74,-0.00337,-257.5,,,,,,,
9993.76,-0.00339,-258.1,,,,,,,
9993.79,-0.00342,-258.8,,,,,,,
9993.84,-0.00347,-260.0,,,,,,,
9993.89,-0.00352,-261.1,,,,,,,
9993.94,-0.00357,-262.2,,,,,,,
9993.99,-0.00362,-263.3,,,,,,,
9994.04,-0.00367,-264.3,,,,,,,
9994.08,-0.00372,-265.2,,,,,,,
9994.13,-0.00377,-266.2,,,,,,,
9994.18,-0.00382,-267.0,,,,,,,
9994.2,-0.00388,-262.0,,,,,,,
9994.21,-0.00395,-262.0,,,,,,,
9994.21,-0.004,-262.0,,,,,,,
9994.24,-0.00405,-261.8,,,,,,,
9994.39,-0.0041,-250.0,,,,,,,
9994.5,-0.00415,-246.0,,,,,,,
9994.57,-0.0042,-246.6,,,,,,,
9994.63,-0.00425,-248.8,,,,,,,
9994.68,-0.0043,-251.1,,,,,,,
9994.73,-0.00435,-253.6,,,,,,,
9994.76,-0.00438,-255.1,,,,,,,
9994.78,-0.0044,-255.9,,,,,,,
9994.82,-0.00445,-257.9,,,,,,,
9994.87,-0.0045,-259.8,,,,,,,
9994.91,-0.00455,-261.4,,,,,,,
9994.96,-0.0046,-262.7,,,,,,,
9995.01,-0.00466,-264.1,,,,,,,
9995.06,-0.00471,-265.1,,,,,,,
9995.11,-0.00476,-266.2,,,,,,,
9995.16,-0.00481,-267.3,,,,,,,
9995.21,-0.00486,-268.4,,,,,,,
9995.27,-0.00491,-269.0,,,,,,,
9995.52,-0.00486,-232.2,,,,,,,
9995.56,-0.00481,-221.9,,,,,,,
9995.61,-0.00476,-212.0,,,,,,,
9995.65,-0.00471,-202.3,,,,,,,
9995.7,-0.00466,-192.8,,,,,,,
9995.74,-0.0046,-184.5,,,,,,,
9995.76,-0.00458,-181.2,,,,,,,
9995.79,-0.00455,-176.4,,,,,,,
9995.84,-0.0045,-168.5,,,,,,,
9995.89,-0.00445,-160.4,,,,,,,
9995.94,-0.0044,-152.8,,,,,,,
9995.99,-0.00435,-145.6,,,,,,,
9996.04,-0.0043,-138.4,,,,,,,
9996.1,-0.00425,-130.9,,,,,,,
9996.15,-0.0042,-123.5,,,,,,,
9996.21,-0.00415,-115.9,,,,,,,
9996.26,-0.0041,-109.1,,,,,,,
9996.32,-0.00405,-101.9,,,,,,,
9996.37,-0.004,-95.09,,,,,,,
9996.42,-0.00395,-88.14,,,,,,,
9996.48,-0.0039,-81.3,,,,,,,
9996.53,-0.00385,-74.28,,,,,,,
9996.6,-0.0038,-66.45,,,,,,,
9996.65,-0.00375,-59.19,,,,,,,
9996.71,-0.0037,-52.19,,,,,,,
9996.76,-0.00365,-45.38,,,,,,,
9996.76,-0.00365,-45.16,,,,,,,
9996.81,-0.0036,-39.38,,,,,,,
9996.86,-0.00355,-33.47,,,,,,,
9996.91,-0.00349,-27.38,,,,,,,
9996.97,-0.00344,-21.22,,,,,,,
9997.02,-0.00339,-14.96,,,,,,,
9997.08,-0.00334,-8.85,,,,,,,
9997.13,-0.00329,-2.71,,,,,,,
9997.19,-0.00324,3.41,,,,,,,
9997.24,-0.00319,9.46,,,,,,,
9997.29,-0.00314,15.03,,,,,,,
9997.35,-0.00309,21.14,,,,,,,
9997.43,-0.00304,26.18,,,,,,,
9997.52,-0.00299,31.32,,,,,,,
9997.57,-0.00294,36.92,,,,,,,
9997.61,-0.00289,42.81,,,,,,,
9997.66,-0.00284,47.63,,,,,,,
9997.71,-0.00279,51.86,,,,,,,
9997.76,-0.00274,55.47,,,,,,,
9997.77,-0.00274,55.76,,,,,,,
9997.83,-0.00269,59.51,,,,,,,
9997.9,-0.00264,63.56,,,,,,,
9997.97,-0.00259,68.09,,,,,,,
9998.03,-0.00254,72.81,,,,,,,
9998.09,-0.00249,77.39,,,,,,,
9998.15,-0.00243,82.18,,,,,,,
9998.2,-0.00238,87.17,,,,,,,
9998.24,-0.00233,92.65,,,,,,,
9998.27,-0.00228,97.74,,,,,,,
9998.3,-0.00223,102.89,,,,,,,
9998.33,-0.00218,108.18,,,,,,,
9998.37,-0.00213,113.23,,,,,,,
9998.4,-0.00208,118.11,,,,,,,
9998.44,-0.00203,123.01,,,,,,,
9998.48,-0.00198,127.5,,,,,,,
9998.52,-0.00193,131.9,,,,,,,
9998.56,-0.00188,135.95,,,,,,,
9998.6,-0.00183,139.77,,,,,,,
9998.65,-0.00177,143.34,,,,,,,
9998.7,-0.00172,147.09,,,,,,,
9998.75,-0.00167,150.59,,,,,,,
9998.76,-0.00166,151.47,,,,,,,
9998.8,-0.00162,153.96,,,,,,,
9998.85,-0.00157,157.65,,,,,,,
9998.9,-0.00152,160.91,,,,,,,
9998.95,-0.00147,164.13,,,,,,,
9999.0,-0.00142,167.52,,,,,,,
9999.05,-0.00137,170.63,,,,,,,
9999.1,-0.00132,173.67,,,,,,,
9999.15,-0.00127,176.65,,,,,,,
9999.2,-0.00122,179.66,,,,,,,
9999.25,-0.00117,182.42,,,,,,,
9999.3,-0.00112,185.19,,,,,,,
9999.35,-0.00107,187.96,,,,,,,
9999.4,-0.00102,190.41,,,,,,,
9999.45,-0.00097,193.11,,,,,,,
9999.5,-0.00092,195.59,,,,,,,
9999.55,-0.00087,198.19,,,,,,,
9999.6,-0.00081,200.68,,,,,,,
9999.64,-0.00076,202.84,,,,,,,
9999.69,-0.00071,204.82,,,,,,,
9999.74,-0.00066,206.83,,,,,,,
9999.76,-0.00064,207.66,,,,,,,
9999.79,-0.00061,208.86,,,,,,,
9999.85,-0.00056,210.97,,,,,,,
9999.89,-0.00051,212.89,,,,,,,
9999.95,-0.00046,214.77,,,,,,,
9999.99,-0.00041,216.56,,,,,,,
10000.04,-0.00036,218.29,,,,,,,
10000.08,-0.00031,219.67,,,,,,,
10000.13,-0.00026,220.97,,,,,,,
10000.18,-0.00021,222.14,,,,,,,
14967.44,0.00496,201.69,,,,,,,
14967.62,0.00491,181.27,,,,,,,
14967.66,0.00486,175.03,,,,,,,
14967.69,0.00481,168.88,,,,,,,
14967.73,0.00476,163.38,,,,,,,
14967.76,0.00471,158.46,,,,,,,
14967.76,0.00471,158.34,,,,,,,
14967.81,0.00466,153.09,,,,,,,
14967.85,0.00461,148.24,,,,,,,
14967.91,0.00456,143.3,,,,,,,
14967.96,0.0045,138.57,,,,,,,
14968.02,0.00445,134.01,,,,,,,
14968.08,0.0044,128.9,,,,,,,
14968.14,0.00435,123.98,,,,,,,
14968.18,0.0043,119.58,,,,,,,
14968.23,0.00425,115.18,,,,,,,
14968.28,0.0042,111.11,,,,,,,
14968.33,0.00415,106.92,,,,,,,
14968.39,0.0041,102.85,,,,,,,
14968.45,0.00405,98.22,,,,,,,
14968.5,0.004,93.69,,,,,,,
14968.55,0.00395,89.84,,,,,,,
14968.6,0.0039,85.32,,,,,,,
14968.67,0.00385,80.44,,,,,,,
14968.72,0.0038,76.16,,,,,,,
14968.76,0.00376,72.44,,,,,,,
14968.78,0.00375,71.37,,,,,,,
14968.83,0.0037,66.41,,,,,,,
14968.89,0.00365,61.92,,,,,,,
14968.93,0.0036,57.75,,,,,,,
14968.98,0.00355,53.79,,,,,,,
14969.03,0.0035,49.51,,,,,,,
14969.09,0.00345,45.24,,,,,,,
14969.14,0.0034,41.53,,,,,,,
14969.19,0.00335,37.4,,,,,,,
14969.24,0.00329,33.47,,,,,,,
14969.3,0.00324,29.09,,,,,,,
14969.35,0.00319,24.91,,,,,,,
14969.4,0.00314,21.12,,,,,,,
14969.45,0.00309,17.2,,,,,,,
14969.51,0.00304,13.56,,,,,,,
14969.55,0.00299,10.17,,,,,,,
14969.6,0.00294,6.61,,,,,,,
14969.66,0.00289,3.02,,,,,,,
14969.71,0.00284,-0.6,,,,,,,
14969.76,0.00279,-4.07,,,,,,,
14969.77,0.00279,-4.31,,,,,,,
14969.82,0.00274,-7.73,,,,,,,
14969.87,0.00269,-10.66,,,,,,,
14969.96,0.00264,-12.97,,,,,,,
14970.11,0.00259,-13.84,,,,,,,
14970.18,0.00254,-17.09,,,,,,,
14970.25,0.00249,-20.57,,,,,,,
14970.31,0.00244,-23.66,,,,,,,
14970.37,0.00239,-27.18,,,,,,,
14970.42,0.00234,-30.72,,,,,,,
14970.45,0.00229,-34.67,,,,,,,
14970.48,0.00223,-39.22,,,,,,,
14970.51,0.00218,-43.28,,,,,,,
14970.53,0.00213,-47.17,,,,,,,
14970.55,0.00208,-50.71,,,,,,,
14970.57,0.00203,-53.93,,,,,,,
14970.6,0.00198,-57.16,,,,,,,
14970.62,0.00193,-60.09,,,,,,,
14970.65,0.00188,-62.79,,,,,,,
14970.69,0.00183,-65.1,,,,,,,
14970.73,0.00178,-67.24,,,,,,,
14970.76,0.00175,-68.43,,,,,,,
14970.79,0.00173,-69.34,,,,,,,
14970.85,0.00168,-71.56,,,,,,,
14970.91,0.00163,-73.97,,,,,,,
14970.96,0.00158,-76.44,,,,,,,
14971.01,0.00153,-78.64,,,,,,,
14971.06,0.00148,-81.0,,,,,,,
14971.1,0.00142,-83.22,,,,,,,
14971.15,0.00137,-85.25,,,,,,,
14971.2,0.00132,-87.19,,,,,,,
14971.25,0.00127,-89.07,,,,,,,
14971.3,0.00122,-90.94,,,,,,,
14971.35,0.00117,-92.66,,,,,,,
14971.41,0.00112,-94.69,,,,,,,
14971.46,0.00107,-96.75,,,,,,,
14971.51,0.00102,-98.59,,,,,,,
14971.56,0.00097,-100.7,,,,,,,
14971.61,0.00092,-102.8,,,,,,,
14971.66,0.00087,-104.8,,,,,,,
14971.72,0.00082,-106.8,,,,,,,
14971.76,0.00077,-108.8,,,,,,,
14971.77,0.00077,-108.9,,,,,,,
14971.82,0.00072,-110.8,,,,,,,
14971.87,0.00067,-112.9,,,,,,,
14971.91,0.00062,-114.6,,,,,,,
14971.96,0.00057,-116.5,,,,,,,
14972.02,0.00052,-118.3,,,,,,,
14972.07,0.00047,-120.1,,,,,,,
14972.12,0.00041,-121.9,,,,,,,
14972.17,0.00036,-123.5,,,,,,,
14972.22,0.00031,-125.1,,,,,,,
14972.27,0.00026,-126.9,,,,,,,
14972.32,0.00021,-128.4,,,,,,,
14972.37,0.00016,-130.0,,,,,,,
14972.42,0.00011,-131.4,,,,,,,
14972.47,6e-05,-133.0,,,,,,,
14972.52,1e-05,-134.6,,,,,,,
14972.57,-4e-05,-136.4,,,,,,,
14972.63,-9e-05,-138.0,,,,,,,
14972.67,-0.00014,-139.6,,,,,,,
14972.72,-0.00019,-141.0,,,,,,,
14972.76,-0.00023,-142.4,,,,,,,
14972.77,-0.00024,-142.7,,,,,,,
14972.83,-0.00029,-144.2,,,,,,,
14972.88,-0.00034,-145.9,,,,,,,
14972.93,-0.00039,-147.5,,,,,,,
14972.97,-0.00044,-148.8,,,,,,,
14973.02,-0.00049,-150.0,,,,,,,
14973.07,-0.00054,-151.2,,,,,,,
14973.12,-0.0006,-152.3,,,,,,,
14973.18,-0.00065,-153.3,,,,,,,
14973.23,-0.0007,-154.4,,,,,,,
14973.28,-0.00075,-155.5,,,,,,,
14973.33,-0.0008,-156.7,,,,,,,
14973.38,-0.00085,-157.7,,,,,,,
14973.42,-0.0009,-158.6,,,,,,,
14973.47,-0.00095,-159.5,,,,,,,
14973.52,-0.001,-160.4,,,,,,,
14973.57,-0.00105,-161.4,,,,,,,
14973.63,-0.0011,-162.3,,,,,,,
14973.68,-0.00115,-163.2,,,,,,,
14973.73,-0.0012,-164.2,,,,,,,
14973.76,-0.00123,-164.8,,,,,,,
14973.78,-0.00125,-165.2,,,,,,,
14973.83,-0.0013,-166.2,,,,,,,
14973.88,-0.00135,-167.3,,,,,,,
14973.93,-0.00141,-168.3,,,,,,,
14973.98,-0.00146,-169.2,,,,,,,
14974.03,-0.00151,-170.1,,,,,,,
14974.08,-0.00156,-171.0,,,,,,,
14974.13,-0.00161,-172.0,,,,,,,
14974.18,-0.00166,-173.0,,,,,,,
14974.24,-0.00171,-173.9,,,,,,,
14974.28,-0.00176,-174.8,,,,,,,
14974.33,-0.00181,-175.4,,,,,,,
14974.38,-0.00186,-176.3,,,,,,,
14974.43,-0.00191,-177.1,,,,,,,
14974.48,-0.00196,-177.9,,,,,,,
14974.51,-0.00201,-177.8,,,,,,,
14974.55,-0.00207,-178.1,,,,,,,
14974.62,-0.00212,-177.7,,,,,,,
14974.69,-0.00217,-177.6,,,,,,,
14974.75,-0.00222,-178.4,,,,,,,
14974.76,-0.00223,-178.7,,,,,,,
14974.8,-0.00227,-179.4,,,,,,,
14974.85,-0.00232,-180.5,,,,,,,
14974.9,-0.00237,-181.7,,,,,,,
14974.94,-0.00242,-182.7,,,,,,,
14974.99,-0.00247,-183.7,,,,,,,
14975.04,-0.00252,-184.8,,,,,,,
14975.09,-0.00257,-185.5,,,,,,,
14975.14,-0.00262,-186.3,,,,,,,
14975.2,-0.00267,-187.2,,,,,,,
14975.25,-0.00272,-188.0,,,,,,,
14975.3,-0.00277,-188.5,,,,,,,
14975.31,-0.00283,-188.2,,,,,,,
14975.33,-0.00288,-188.6,,,,,,,
14975.41,-0.00293,-187.4,,,,,,,
14975.49,-0.00298,-186.0,,,,,,,
14975.56,-0.00303,-186.3,,,,,,,
14975.61,-0.00308,-187.4,,,,,,,
14975.65,-0.00313,-188.7,,,,,,,
14975.69,-0.00318,-189.8,,,,,,,
14975.75,-0.00323,-190.7,,,,,,,
14975.76,-0.00325,-191.0,,,,,,,
14975.8,-0.00328,-191.5,,,,,,,
14975.86,-0.00333,-192.6,,,,,,,
14975.91,-0.00338,-193.8,,,,,,,
14975.95,-0.00343,-194.6,,,,,,,
14976.0,-0.00348,-195.9,,,,,,,
14976.04,-0.00353,-196.4,,,,,,,
14976.08,-0.00358,-197.1,,,,,,,
14976.14,-0.00363,-197.3,,,,,,,
14976.19,-0.00368,-197.5,,,,,,,
14976.26,-0.00373,-198.1,,,,,,,
14976.31,-0.00378,-199.1,,,,,,,
14976.37,-0.00383,-200.2,,,,,,,
14976.41,-0.00389,-200.2,,,,,,,
14976.42,-0.00394,-200.5,,,,,,,
14976.48,-0.00399,-201.3,,,,,,,
14976.54,-0.00404,-201.4,,,,,,,
14976.62,-0.00409,-202.0,,,,,,,
14976.68,-0.00414,-203.3,,,,,,,
14976.73,-0.00419,-205.0,,,,,,,
14976.76,-0.00423,-206.2,,,,,,,
14976.77,-0.00424,-206.5,,,,,,,
14976.82,-0.00429,-208.1,,,,,,,
14976.86,-0.00434,-208.6,,,,,,,
14976.91,-0.00439,-210.1,,,,,,,
14976.97,-0.00444,-211.5,,,,,,,
14977.03,-0.00449,-213.0,,,,,,,
14977.09,-0.00454,-214.6,,,,,,,
14977.14,-0.0046,-216.3,,,,,,,
14977.17,-0.00465,-216.8,,,,,,,
14977.2,-0.0047,-217.9,,,,,,,
14977.26,-0.00475,-218.8,,,,,,,
14977.34,-0.0048,-220.3,,,,,,,
14977.4,-0.00485,-221.3,,,,,,,
14977.42,-0.0049,-222.0,,,,,,,
14977.48,-0.00495,-222.4,,,,,,,
14977.65,-0.0049,-201.1,,,,,,,
14977.7,-0.00485,-191.3,,,,,,,
14977.74,-0.0048,-181.7,,,,,,,
14977.76,-0.00478,-177.7,,,,,,,
14977.79,-0.00475,-173.1,,,,,,,
14977.83,-0.0047,-164.7,,,,,,,
14977.88,-0.00465,-157.1,,,,,,,
14977.92,-0.0046,-149.4,,,,,,,
14977.97,-0.00455,-142.3,,,,,,,
14978.02,-0.0045,-135.0,,,,,,,
14978.07,-0.00445,-128.8,,,,,,,
14978.11,-0.0044,-123.1,,,,,,,
14978.16,-0.00435,-117.4,,,,,,,
14978.21,-0.00429,-111.9,,,,,,,
14978.26,-0.00424,-106.8,,,,,,,
14978.31,-0.00419,-101.7,,,,,,,
14978.36,-0.00414,-96.58,,,,,,,
14978.42,-0.00409,-90.88,,,,,,,
14978.47,-0.00404,-85.9,,,,,,,
14978.53,-0.00399,-80.56,,,,,,,
14978.58,-0.00394,-75.63,,,,,,,
14978.63,-0.00389,-70.63,,,,,,,
14978.68,-0.00384,-66.27,,,,,,,
14978.73,-0.00379,-61.84,,,,,,,
14978.76,-0.00376,-58.84,,,,,,,
14978.78,-0.00374,-57.09,,,,,,,
14978.83,-0.00369,-52.96,,,,,,,
14978.88,-0.00364,-48.79,,,,,,,
14978.94,-0.00359,-44.75,,,,,,,
14978.99,-0.00354,-40.61,,,,,,,
14979.04,-0.00349,-36.46,,,,,,,
14979.1,-0.00344,-32.43,,,,,,,
14979.15,-0.00339,-28.52,,,,,,,
14979.2,-0.00334,-24.63,,,,,,,
14979.25,-0.00329,-20.53,,,,,,,
14979.31,-0.00324,-16.74,,,,,,,
14979.35,-0.00319,-13.08,,,,,,,
14979.41,-0.00313,-8.89,,,,,,,
14979.47,-0.00308,-4.92,,,,,,,
14979.52,-0.00303,-0.89,,,,,,,
14979.57,-0.00298,2.79,,,,,,,
14979.62,-0.00293,6.33,,,,,,,
14979.67,-0.00288,9.95,,,,,,,
14979.73,-0.00283,13.47,,,,,,,
14979.76,-0.0028,15.78,,,,,,,
14979.78,-0.00278,17.04,,,,,,,
14979.85,-0.00273,20.43,,,,,,,
14979.94,-0.00268,23.61,,,,,,,
14980.0,-0.00263,26.75,,,,,,,
14980.05,-0.00258,30.96,,,,,,,
14980.09,-0.00253,35.05,,,,,,,
14980.12,-0.00248,38.66,,,,,,,
14980.17,-0.00243,41.56,,,,,,,
14980.25,-0.00238,44.12,,,,,,,
14980.33,-0.00233,47.28,,,,,,,
14980.39,-0.00228,50.54,,,,,,,
14980.45,-0.00223,53.95,,,,,,,
14980.5,-0.00218,57.21,,,,,,,
14980.56,-0.00213,60.44,,,,,,,
14980.62,-0.00208,63.53,,,,,,,
14980.67,-0.00202,66.84,,,,,,,
14980.72,-0.00197,69.97,,,,,,,
14980.76,-0.00193,72.4,,,,,,,
14980.77,-0.00192,72.98,,,,,,,
14980.82,-0.00187,76.42,,,,,,,
14980.86,-0.00182,80.09,,,,,,,
14980.89,-0.00177,83.59,,,,,,,
14980.92,-0.00172,87.07,,,,,,,
14980.95,-0.00167,90.24,,,,,,,
14980.98,-0.00162,93.15,,,,,,,
14981.01,-0.00157,96.03,,,,,,,
14981.05,-0.00152,98.79,,,,,,,
14981.09,-0.00147,101.12,,,,,,,
14981.13,-0.00142,103.4,,,,,,,
14981.18,-0.00137,105.41,,,,,,,
14981.23,-0.00131,107.35,,,,,,,
14981.28,-0.00126,109.41,,,,,,,
14981.33,-0.00121,111.33,,,,,,,
14981.38,-0.00116,113.37,,,,,,,
14981.43,-0.00111,115.37,,,,,,,
14981.48,-0.00106,117.38,,,,,,,
14981.53,-0.00101,119.24,,,,,,,
14981.58,-0.00096,121.1,,,,,,,
14981.63,-0.00091,122.8,,,,,,,
14981.68,-0.00086,124.52,,,,,,,
14981.73,-0.00081,126.14,,,,,,,
14981.76,-0.00078,127.21,,,,,,,
14981.78,-0.00076,127.9,,,,,,,
14981.83,-0.00071,129.74,,,,,,,
14981.88,-0.00066,131.37,,,,,,,
14981.93,-0.00061,133.04,,,,,,,
14981.98,-0.00056,134.75,,,,,,,
14982.03,-0.00051,136.22,,,,,,,
14982.08,-0.00046,137.68,,,,,,,
14982.13,-0.00041,139.06,,,,,,,
14982.18,-0.00036,140.35,,,,,,,
14982.23,-0.0003,141.75,,,,,,,
14982.28,-0.00025,143.16,,,,,,,
14982.33,-0.0002,144.56,,,,,,,
14982.38,-0.00015,145.78,,,,,,,
14982.43,-0.0001,147.12,,,,,,,
14982.48,-5e-05,148.45,,,,,,,
14982.54,-0.0,149.72,,,,,,,
14982.59,5e-05,150.96,,,,,,,
14982.64,0.0001,152.23,,,,,,,
14982.69,0.00015,153.52,,,,,,,
14982.74,0.0002,154.93,,,,,,,
14982.76,0.00022,155.5,,,,,,,
14982.79,0.00025,156.11,,,,,,,
14982.84,0.0003,157.31,,,,,,,
14982.89,0.00035,158.37,,,,,,,
14982.93,0.0004,159.42,,,,,,,
14982.98,0.00045,160.35,,,,,,,
14983.03,0.0005,161.2,,,,,,,
14983.08,0.00056,162.01,,,,,,,
14983.13,0.00061,162.74,,,,,,,
14983.19,0.00066,163.52,,,,,,,
14983.24,0.00071,164.49,,,,,,,
14983.29,0.00076,165.27,,,,,,,
14983.34,0.00081,166.29,,,,,,,
14983.39,0.00086,167.25,,,,,,,
14983.44,0.00091,168.25,,,,,,,
14983.49,0.00096,169.19,,,,,,,
14983.54,0.00101,170.14,,,,,,,
14983.59,0.00106,171.04,,,,,,,
14983.64,0.00111,171.89,,,,,,,
14983.69,0.00116,172.67,,,,,,,
14983.74,0.00121,173.5,,,,,,,
14983.76,0.00124,173.89,,,,,,,
14983.79,0.00126,174.27,,,,,,,
14983.84,0.00131,174.9,,,,,,,
14983.89,0.00136,175.51,,,,,,,
14983.94,0.00141,176.28,,,,,,,
14983.99,0.00146,176.96,,,,,,,
14984.04,0.00151,177.71,,,,,,,
14984.1,0.00156,178.66,,,,,,,
14984.14,0.00161,179.47,,,,,,,
14984.19,0.00166,180.22,,,,,,,
14984.23,0.00172,180.87,,,,,,,
14984.28,0.00177,181.37,,,,,,,
14984.34,0.00182,181.74,,,,,,,
14984.39,0.00187,182.08,,,,,,,
14984.44,0.00192,182.55,,,,,,,
14984.49,0.00197,183.15,,,,,,,
14984.54,0.00202,183.75,,,,,,,
14984.59,0.00207,184.38,,,,,,,
14984.65,0.00212,185.02,,,,,,,
14984.7,0.00217,185.72,,,,,,,
14984.75,0.00222,186.36,,,,,,,
14984.76,0.00224,186.59,,,,,,,
14984.79,0.00227,187.06,,,,,,,
14984.84,0.00232,187.72,,,,,,,
14984.89,0.00237,188.24,,,,,,,
14984.91,0.00243,186.77,,,,,,,
14984.91,0.00248,186.41,,,,,,,
14984.92,0.00253,186.49,,,,,,,
14985.05,0.00258,179.81,,,,,,,
14985.16,0.00263,177.06,,,,,,,
14985.23,0.00268,177.97,,,,,,,
14985.27,0.00274,179.57,,,,,,,
14985.32,0.00279,181.11,,,,,,,
14985.36,0.00284,182.55,,,,,,,
14985.41,0.00289,183.9,,,,,,,
14985.46,0.00294,185.06,,,,,,,
14985.51,0.00299,186.08,,,,,,,
14985.56,0.00304,187.06,,,,,,,
14985.61,0.00309,188.05,,,,,,,
14985.66,0.00314,188.93,,,,,,,
14985.71,0.00319,189.73,,,,,,,
14985.76,0.00324,190.55,,,,,,,
14985.76,0.00324,190.62,,,,,,,
14985.81,0.00329,191.29,,,,,,,
14985.86,0.00334,192.11,,,,,,,
14985.91,0.00339,192.86,,,,,,,
14985.96,0.00344,193.61,,,,,,,
14986.01,0.00349,194.3,,,,,,,
14986.06,0.00354,194.88,,,,,,,
14986.1,0.00359,195.34,,,,,,,
14986.15,0.00364,195.8,,,,,,,
14986.21,0.00369,196.24,,,,,,,
14986.26,0.00374,196.66,,,,,,,
14986.31,0.00379,197.16,,,,,,,
14986.36,0.00385,197.63,,,,,,,
14986.39,0.0039,197.45,,,,,,,
14986.44,0.00395,197.5,,,,,,,
14986.48,0.004,197.3,,,,,,,
14986.55,0.00405,196.89,,,,,,,
14986.6,0.0041,196.65,,,,,,,
14986.66,0.00415,196.8,,,,,,,
14986.71,0.0042,197.25,,,,,,,
14986.76,0.00425,197.72,,,,,,,
14986.81,0.0043,198.28,,,,,,,
14986.86,0.00435,198.78,,,,,,,
14986.91,0.0044,199.41,,,,,,,
14986.96,0.00445,199.87,,,,,,,
14987.02,0.0045,200.23,,,,,,,
14987.07,0.00455,200.7,,,,,,,
14987.12,0.0046,201.29,,,,,,,
14987.16,0.00465,201.84,,,,,,,
14987.21,0.0047,202.29,,,,,,,
14987.25,0.00476,202.51,,,,,,,
14987.29,0.00481,202.63,,,,,,,
14987.34,0.00486,202.34,,,,,,,
14987.4,0.00491,201.91,,,,,,,
