time,strain,stress,temperature,type,strain_rate,max_strain,title,youngs,poissons
0.0,5e-05,8.63,950,fatigue,0.001,0.00503,E-13,144000,0.3
0.05,0.0001,15.57,,,,,,,
0.1,0.00015,22.51,,,,,,,
0.16,0.0002,29.72,,,,,,,
0.25,0.00025,35.91,,,,,,,
0.3,0.00028,39.11,,,,,,,
0.36,0.0003,42.99,,,,,,,
0.41,0.00036,51.48,,,,,,,
0.44,0.00041,57.03,,,,,,,
0.47,0.00046,63.75,,,,,,,
0.51,0.00051,70.24,,,,,,,
0.58,0.00056,77.01,,,,,,,
0.65,0.00061,84.0,,,,,,,
0.72,0.00066,90.28,,,,,,,
0.8,0.00071,98.48,,,,,,,
0.85,0.00076,105.12,,,,,,,
0.89,0.00081,112.09,,,,,,,
0.93,0.00086,119.37,,,,,,,
0.96,0.00091,125.87,,,,,,,
1.0,0.00096,131.84,,,,,,,
1.03,0.00102,138.32,,,,,,,
1.07,0.00107,144.58,,,,,,,
1.11,0.00112,150.34,,,,,,,
1.15,0.00117,155.78,,,,,,,
1.19,0.00122,159.82,,,,,,,
1.22,0.00127,163.28,,,,,,,
1.25,0.00132,165.38,,,,,,,
1.27,0.00137,165.89,,,,,,,
1.29,0.00142,166.31,,,,,,,
1.3,0.00146,166.29,,,,,,,
1.31,0.00147,166.38,,,,,,,
1.35,0.00153,165.56,,,,,,,
1.52,0.00158,160.15,,,,,,,
1.58,0.00163,162.96,,,,,,,
1.63,0.00168,166.93,,,,,,,
1.67,0.00173,169.39,,,,,,,
1.71,0.00178,172.42,,,,,,,
1.74,0.00183,173.91,,,,,,,
1.77,0.00188,174.94,,,,,,,
1.79,0.00193,169.1,,,,,,,
1.8,0.00199,169.24,,,,,,,
1.8,0.00201,169.34,,,,,,,
1.81,0.00204,169.27,,,,,,,
1.97,0.00209,156.09,,,,,,,
2.07,0.00214,154.55,,,,,,,
2.13,0.00219,156.07,,,,,,,
2.17,0.00224,158.8,,,,,,,
2.22,0.00229,161.02,,,,,,,
2.26,0.00235,162.67,,,,,,,
2.3,0.0024,163.93,,,,,,,
2.3,0.0024,164.64,,,,,,,
2.34,0.00245,165.05,,,,,,,
2.38,0.0025,165.57,,,,,,,
2.43,0.00255,165.94,,,,,,,
2.48,0.0026,165.5,,,,,,,
2.53,0.00265,164.59,,,,,,,
2.57,0.0027,163.8,,,,,,,
2.62,0.00275,163.24,,,,,,,
2.67,0.0028,162.22,,,,,,,
2.73,0.00285,161.32,,,,,,,
2.77,0.0029,160.8,,,,,,,
2.8,0.00292,160.51,,,,,,,
2.83,0.00295,159.95,,,,,,,
2.87,0.003,158.83,,,,,,,
2.92,0.00305,158.34,,,,,,,
2.98,0.0031,157.04,,,,,,,
3.02,0.00315,156.55,,,,,,,
3.07,0.0032,156.24,,,,,,,
3.12,0.00325,155.46,,,,,,,
3.17,0.0033,154.59,,,,,,,
3.23,0.00335,153.63,,,,,,,
3.28,0.0034,152.93,,,,,,,
3.3,0.00343,153.19,,,,,,,
3.33,0.00345,152.32,,,,,,,
3.38,0.00351,152.36,,,,,,,
3.43,0.00356,152.25,,,,,,,
3.48,0.00361,151.68,,,,,,,
3.53,0.00366,151.25,,,,,,,
3.58,0.00371,150.68,,,,,,,
3.63,0.00376,150.13,,,,,,,
3.68,0.00381,149.43,,,,,,,
3.73,0.00386,148.89,,,,,,,
3.78,0.00391,148.23,,,,,,,
3.8,0.00393,148.3,,,,,,,
3.83,0.00396,148.03,,,,,,,
3.88,0.00401,147.29,,,,,,,
3.94,0.00406,147.53,,,,,,,
3.99,0.00411,147.23,,,,,,,
4.03,0.00416,146.95,,,,,,,
4.09,0.00421,146.81,,,,,,,
4.14,0.00426,146.59,,,,,,,
4.19,0.00432,146.61,,,,,,,
4.24,0.00437,146.31,,,,,,,
4.28,0.00442,145.99,,,,,,,
4.3,0.00443,145.27,,,,,,,
4.45,0.00437,118.3,,,,,,,
4.48,0.00431,109.25,,,,,,,
4.52,0.00426,101.12,,,,,,,
4.55,0.00421,93.73,,,,,,,
4.59,0.00416,85.96,,,,,,,
4.63,0.00411,78.48,,,,,,,
4.68,0.00406,71.74,,,,,,,
4.73,0.00401,64.74,,,,,,,
4.79,0.00396,58.13,,,,,,,
4.8,0.00395,56.42,,,,,,,
4.84,0.00391,50.95,,,,,,,
4.9,0.00386,44.56,,,,,,,
4.95,0.00381,37.66,,,,,,,
5.01,0.00376,31.45,,,,,,,
5.06,0.00371,25.13,,,,,,,
5.11,0.00366,18.9,,,,,,,
5.17,0.00361,13.14,,,,,,,
5.22,0.00356,6.88,,,,,,,
5.28,0.00351,1.65,,,,,,,
5.3,0.00348,-1.28,,,,,,,
5.34,0.00346,-4.73,,,,,,,
5.45,0.00341,-7.94,,,,,,,
5.55,0.00335,-13.65,,,,,,,
5.61,0.0033,-18.93,,,,,,,
5.66,0.00325,-25.68,,,,,,,
5.71,0.0032,-30.84,,,,,,,
5.75,0.00315,-37.58,,,,,,,
5.79,0.0031,-42.91,,,,,,,
5.8,0.00308,-44.79,,,,,,,
5.83,0.00304,-47.59,,,,,,,
5.88,0.00299,-51.73,,,,,,,
5.92,0.00294,-55.65,,,,,,,
5.96,0.00289,-61.1,,,,,,,
6.01,0.00284,-67.8,,,,,,,
6.03,0.00279,-70.88,,,,,,,
6.07,0.00274,-76.91,,,,,,,
6.09,0.00269,-80.12,,,,,,,
6.14,0.00264,-85.08,,,,,,,
6.16,0.00258,-87.9,,,,,,,
6.21,0.00253,-91.79,,,,,,,
6.25,0.00248,-93.58,,,,,,,
6.3,0.00244,-96.32,,,,,,,
6.31,0.00243,-96.15,,,,,,,
6.34,0.00238,-97.66,,,,,,,
6.4,0.00233,-99.92,,,,,,,
6.45,0.00228,-101.6,,,,,,,
6.52,0.00223,-104.1,,,,,,,
6.55,0.00218,-106.1,,,,,,,
6.61,0.00213,-107.9,,,,,,,
6.66,0.00208,-110.0,,,,,,,
6.71,0.00203,-111.6,,,,,,,
6.76,0.00198,-113.4,,,,,,,
6.8,0.00193,-114.7,,,,,,,
6.8,0.00193,-114.5,,,,,,,
6.85,0.00188,-116.1,,,,,,,
6.9,0.00182,-116.8,,,,,,,
6.95,0.00177,-118.2,,,,,,,
7.01,0.00172,-119.4,,,,,,,
7.04,0.00167,-120.1,,,,,,,
7.09,0.00162,-120.5,,,,,,,
7.16,0.00157,-121.2,,,,,,,
7.19,0.00152,-121.6,,,,,,,
7.26,0.00147,-123.2,,,,,,,
7.3,0.00143,-124.2,,,,,,,
7.31,0.00142,-124.2,,,,,,,
7.35,0.00137,-124.6,,,,,,,
7.4,0.00132,-125.6,,,,,,,
7.45,0.00127,-126.3,,,,,,,
7.5,0.00122,-127.0,,,,,,,
7.55,0.00117,-127.7,,,,,,,
7.6,0.00112,-128.6,,,,,,,
7.65,0.00106,-128.8,,,,,,,
7.7,0.00101,-129.1,,,,,,,
7.75,0.00096,-129.3,,,,,,,
7.8,0.00091,-129.2,,,,,,,
7.85,0.00086,-129.1,,,,,,,
7.91,0.00081,-129.2,,,,,,,
7.95,0.00076,-129.2,,,,,,,
8.0,0.00071,-129.4,,,,,,,
8.06,0.00066,-129.1,,,,,,,
8.1,0.0006,-128.9,,,,,,,
8.15,0.00055,-129.1,,,,,,,
8.21,0.0005,-129.0,,,,,,,
8.26,0.00045,-129.3,,,,,,,
8.3,0.00041,-129.3,,,,,,,
8.31,0.0004,-129.1,,,,,,,
8.36,0.00035,-129.6,,,,,,,
8.41,0.0003,-129.1,,,,,,,
8.46,0.00025,-129.3,,,,,,,
8.51,0.0002,-129.6,,,,,,,
8.56,0.00015,-129.9,,,,,,,
8.61,0.0001,-130.4,,,,,,,
8.66,5e-05,-130.2,,,,,,,
8.71,-0.0,-130.4,,,,,,,
8.76,-5e-05,-130.4,,,,,,,
8.8,-9e-05,-130.6,,,,,,,
8.81,-0.0001,-130.2,,,,,,,
8.86,-0.00015,-130.6,,,,,,,
8.91,-0.0002,-130.5,,,,,,,
8.97,-0.00025,-130.7,,,,,,,
9.02,-0.00031,-130.6,,,,,,,
9.07,-0.00036,-131.0,,,,,,,
9.11,-0.00041,-130.9,,,,,,,
9.16,-0.00046,-131.2,,,,,,,
9.22,-0.00051,-131.1,,,,,,,
9.27,-0.00056,-131.2,,,,,,,
9.3,-0.00059,-131.4,,,,,,,
9.31,-0.00061,-131.5,,,,,,,
9.36,-0.00066,-131.6,,,,,,,
9.42,-0.00071,-131.8,,,,,,,
9.47,-0.00076,-131.9,,,,,,,
9.52,-0.00081,-131.6,,,,,,,
9.57,-0.00086,-131.8,,,,,,,
9.62,-0.00091,-132.4,,,,,,,
9.67,-0.00096,-132.1,,,,,,,
9.72,-0.00101,-132.2,,,,,,,
9.77,-0.00106,-132.2,,,,,,,
9.8,-0.0011,-132.3,,,,,,,
9.81,-0.00111,-132.2,,,,,,,
9.87,-0.00116,-132.3,,,,,,,
9.92,-0.00122,-132.3,,,,,,,
9.97,-0.00127,-131.6,,,,,,,
10.02,-0.00132,-131.9,,,,,,,
10.07,-0.00137,-131.8,,,,,,,
10.12,-0.00142,-132.0,,,,,,,
10.18,-0.00147,-132.4,,,,,,,
10.22,-0.00152,-132.1,,,,,,,
10.27,-0.00157,-132.0,,,,,,,
10.3,-0.0016,-131.9,,,,,,,
10.31,-0.00162,-132.2,,,,,,,
10.37,-0.00167,-132.0,,,,,,,
10.43,-0.00172,-131.7,,,,,,,
10.48,-0.00177,-131.5,,,,,,,
10.52,-0.00182,-131.8,,,,,,,
10.58,-0.00188,-131.6,,,,,,,
10.62,-0.00193,-131.8,,,,,,,
10.68,-0.00198,-131.8,,,,,,,
10.73,-0.00203,-132.3,,,,,,,
10.78,-0.00208,-131.8,,,,,,,
10.8,-0.0021,-131.8,,,,,,,
10.83,-0.00213,-132.0,,,,,,,
10.89,-0.00218,-132.2,,,,,,,
10.94,-0.00224,-131.7,,,,,,,
10.99,-0.00229,-132.4,,,,,,,
11.04,-0.00234,-132.1,,,,,,,
11.09,-0.00239,-132.6,,,,,,,
11.14,-0.00244,-132.9,,,,,,,
11.18,-0.00249,-132.9,,,,,,,
11.24,-0.00254,-133.2,,,,,,,
11.3,-0.00259,-133.9,,,,,,,
11.3,-0.0026,-133.5,,,,,,,
11.33,-0.00264,-133.6,,,,,,,
11.39,-0.00269,-134.0,,,,,,,
11.44,-0.00274,-134.0,,,,,,,
11.49,-0.00279,-133.7,,,,,,,
11.54,-0.00284,-133.7,,,,,,,
11.6,-0.0029,-133.4,,,,,,,
11.64,-0.00295,-133.7,,,,,,,
11.7,-0.003,-133.6,,,,,,,
11.75,-0.00305,-133.8,,,,,,,
11.79,-0.0031,-134.6,,,,,,,
11.8,-0.00311,-134.0,,,,,,,
11.84,-0.00315,-134.0,,,,,,,
11.89,-0.0032,-134.3,,,,,,,
11.95,-0.00325,-134.0,,,,,,,
12.0,-0.0033,-134.1,,,,,,,
12.05,-0.00335,-133.9,,,,,,,
12.1,-0.0034,-134.0,,,,,,,
12.14,-0.00345,-134.5,,,,,,,
12.19,-0.0035,-134.7,,,,,,,
12.24,-0.00355,-134.3,,,,,,,
12.29,-0.0036,-134.3,,,,,,,
12.3,-0.00361,-133.9,,,,,,,
12.35,-0.00365,-133.8,,,,,,,
12.4,-0.0037,-133.9,,,,,,,
12.45,-0.00375,-133.6,,,,,,,
12.5,-0.0038,-133.9,,,,,,,
12.55,-0.00385,-133.7,,,,,,,
12.6,-0.00391,-133.5,,,,,,,
12.65,-0.00396,-133.4,,,,,,,
12.7,-0.00401,-133.8,,,,,,,
12.75,-0.00406,-133.8,,,,,,,
12.8,-0.00411,-133.4,,,,,,,
12.8,-0.00411,-133.6,,,,,,,
12.85,-0.00416,-134.1,,,,,,,
12.9,-0.00421,-134.0,,,,,,,
12.95,-0.00426,-133.6,,,,,,,
13.01,-0.00431,-133.9,,,,,,,
13.06,-0.00436,-134.2,,,,,,,
13.13,-0.00441,-131.4,,,,,,,
13.23,-0.00436,-112.5,,,,,,,
13.27,-0.00431,-102.8,,,,,,,
13.3,-0.00426,-94.35,,,,,,,
13.3,-0.00426,-94.32,,,,,,,
13.34,-0.00421,-86.66,,,,,,,
13.37,-0.00416,-79.19,,,,,,,
13.41,-0.00411,-71.62,,,,,,,
13.46,-0.00406,-63.85,,,,,,,
13.51,-0.00401,-57.2,,,,,,,
13.56,-0.00396,-50.54,,,,,,,
13.62,-0.00391,-44.03,,,,,,,
13.68,-0.00385,-37.65,,,,,,,
13.73,-0.0038,-30.78,,,,,,,
13.78,-0.00375,-24.99,,,,,,,
13.8,-0.00374,-23.18,,,,,,,
13.84,-0.0037,-18.89,,,,,,,
13.89,-0.00365,-12.94,,,,,,,
13.95,-0.0036,-6.26,,,,,,,
14.0,-0.00355,-0.35,,,,,,,
14.05,-0.0035,4.95,,,,,,,
14.11,-0.00345,10.77,,,,,,,
14.16,-0.0034,16.6,,,,,,,
14.21,-0.00335,21.9,,,,,,,
14.27,-0.0033,27.4,,,,,,,
14.3,-0.00327,30.65,,,,,,,
14.32,-0.00325,32.66,,,,,,,
14.4,-0.0032,36.5,,,,,,,
14.49,-0.00315,40.22,,,,,,,
14.57,-0.0031,45.15,,,,,,,
14.62,-0.00305,51.73,,,,,,,
14.65,-0.003,57.08,,,,,,,
14.68,-0.00295,62.19,,,,,,,
14.72,-0.0029,66.37,,,,,,,
14.77,-0.00285,70.41,,,,,,,
14.8,-0.00282,71.89,,,,,,,
14.83,-0.0028,73.8,,,,,,,
14.9,-0.00275,77.15,,,,,,,
14.96,-0.0027,80.64,,,,,,,
15.02,-0.00264,83.83,,,,,,,
15.07,-0.00259,88.52,,,,,,,
15.12,-0.00254,92.51,,,,,,,
15.16,-0.00249,97.38,,,,,,,
15.19,-0.00244,102.32,,,,,,,
15.23,-0.00239,106.55,,,,,,,
15.26,-0.00234,110.32,,,,,,,
15.29,-0.00229,114.01,,,,,,,
15.3,-0.00228,114.56,,,,,,,
15.33,-0.00224,117.39,,,,,,,
15.36,-0.00219,119.73,,,,,,,
15.4,-0.00214,122.21,,,,,,,
15.45,-0.00209,124.25,,,,,,,
15.49,-0.00204,125.29,,,,,,,
15.54,-0.00198,126.43,,,,,,,
15.59,-0.00193,127.44,,,,,,,
15.64,-0.00188,127.85,,,,,,,
15.68,-0.00183,128.67,,,,,,,
15.73,-0.00178,129.47,,,,,,,
15.78,-0.00173,129.87,,,,,,,
15.8,-0.00171,129.52,,,,,,,
15.83,-0.00168,129.66,,,,,,,
15.88,-0.00163,130.18,,,,,,,
15.93,-0.00158,130.41,,,,,,,
15.98,-0.00153,130.23,,,,,,,
16.03,-0.00148,130.51,,,,,,,
16.08,-0.00143,130.75,,,,,,,
16.13,-0.00138,131.23,,,,,,,
16.18,-0.00133,131.37,,,,,,,
16.23,-0.00128,131.85,,,,,,,
16.28,-0.00123,132.21,,,,,,,
16.3,-0.00121,131.88,,,,,,,
16.33,-0.00118,132.45,,,,,,,
16.38,-0.00113,132.42,,,,,,,
16.43,-0.00108,132.67,,,,,,,
16.48,-0.00102,132.7,,,,,,,
16.53,-0.00097,132.31,,,,,,,
16.57,-0.00092,132.05,,,,,,,
16.63,-0.00087,132.02,,,,,,,
16.68,-0.00082,131.85,,,,,,,
16.73,-0.00077,131.74,,,,,,,
16.78,-0.00072,131.7,,,,,,,
16.8,-0.0007,131.73,,,,,,,
16.84,-0.00067,132.29,,,,,,,
16.88,-0.00062,131.97,,,,,,,
16.93,-0.00057,132.36,,,,,,,
16.98,-0.00052,132.6,,,,,,,
17.04,-0.00047,133.11,,,,,,,
17.09,-0.00042,133.04,,,,,,,
17.13,-0.00037,133.62,,,,,,,
17.18,-0.00032,133.77,,,,,,,
17.23,-0.00027,133.43,,,,,,,
17.27,-0.00022,133.24,,,,,,,
17.3,-0.0002,133.26,,,,,,,
17.33,-0.00017,133.36,,,,,,,
17.38,-0.00012,132.79,,,,,,,
17.44,-7e-05,132.8,,,,,,,
17.49,-2e-05,132.75,,,,,,,
17.54,3e-05,132.77,,,,,,,
17.6,8e-05,133.04,,,,,,,
17.65,0.00013,132.89,,,,,,,
17.69,0.00018,133.27,,,,,,,
17.75,0.00023,133.41,,,,,,,
17.8,0.00029,134.24,,,,,,,
17.84,0.00034,134.23,,,,,,,
17.9,0.00039,134.84,,,,,,,
17.94,0.00044,135.18,,,,,,,
17.99,0.00049,135.04,,,,,,,
18.05,0.00054,135.27,,,,,,,
18.1,0.00059,135.24,,,,,,,
18.15,0.00064,135.69,,,,,,,
18.2,0.00069,135.45,,,,,,,
18.25,0.00075,135.43,,,,,,,
18.3,0.0008,135.37,,,,,,,
18.3,0.0008,135.58,,,,,,,
18.35,0.00085,135.15,,,,,,,
18.4,0.0009,134.96,,,,,,,
18.44,0.00095,134.98,,,,,,,
18.51,0.001,135.02,,,,,,,
18.56,0.00105,134.74,,,,,,,
18.6,0.0011,135.16,,,,,,,
18.66,0.00116,134.82,,,,,,,
18.71,0.00121,135.44,,,,,,,
18.76,0.00126,135.64,,,,,,,
18.8,0.0013,135.63,,,,,,,
18.81,0.00131,135.36,,,,,,,
18.86,0.00136,135.49,,,,,,,
18.91,0.00141,135.44,,,,,,,
18.96,0.00146,135.12,,,,,,,
19.01,0.00151,135.68,,,,,,,
19.06,0.00156,135.77,,,,,,,
19.11,0.00161,135.62,,,,,,,
19.16,0.00166,135.63,,,,,,,
19.21,0.00171,136.12,,,,,,,
19.26,0.00176,136.3,,,,,,,
19.3,0.0018,136.77,,,,,,,
19.31,0.00181,136.81,,,,,,,
19.36,0.00186,136.56,,,,,,,
19.41,0.00191,136.25,,,,,,,
19.46,0.00196,136.35,,,,,,,
19.51,0.00201,136.11,,,,,,,
19.56,0.00206,136.18,,,,,,,
19.61,0.00211,135.76,,,,,,,
19.66,0.00216,135.66,,,,,,,
19.72,0.00222,135.37,,,,,,,
19.77,0.00227,135.71,,,,,,,
19.8,0.0023,135.86,,,,,,,
19.82,0.00232,135.58,,,,,,,
19.87,0.00237,135.95,,,,,,,
19.92,0.00242,136.22,,,,,,,
19.97,0.00247,136.26,,,,,,,
20.02,0.00252,136.72,,,,,,,
20.07,0.00257,136.45,,,,,,,
20.12,0.00262,136.75,,,,,,,
20.17,0.00267,136.62,,,,,,,
20.22,0.00272,136.47,,,,,,,
20.27,0.00277,136.7,,,,,,,
20.3,0.0028,136.66,,,,,,,
20.32,0.00282,136.46,,,,,,,
20.38,0.00287,136.76,,,,,,,
20.42,0.00292,137.17,,,,,,,
20.47,0.00297,136.96,,,,,,,
20.53,0.00303,136.98,,,,,,,
20.57,0.00308,137.53,,,,,,,
20.62,0.00313,137.87,,,,,,,
20.67,0.00318,137.78,,,,,,,
20.72,0.00323,137.79,,,,,,,
20.77,0.00328,137.83,,,,,,,
20.8,0.0033,137.55,,,,,,,
20.82,0.00333,137.34,,,,,,,
20.87,0.00338,137.7,,,,,,,
20.93,0.00343,138.0,,,,,,,
20.97,0.00348,138.17,,,,,,,
21.03,0.00353,138.12,,,,,,,
21.08,0.00358,138.48,,,,,,,
21.12,0.00363,138.87,,,,,,,
21.18,0.00368,138.76,,,,,,,
21.23,0.00373,138.57,,,,,,,
21.28,0.00378,138.59,,,,,,,
21.3,0.00381,138.67,,,,,,,
21.33,0.00384,138.69,,,,,,,
21.38,0.00389,139.16,,,,,,,
21.43,0.00394,139.03,,,,,,,
21.48,0.00399,138.7,,,,,,,
21.53,0.00404,138.76,,,,,,,
21.58,0.00409,139.25,,,,,,,
21.63,0.00414,138.66,,,,,,,
21.68,0.00419,138.96,,,,,,,
21.73,0.00424,138.61,,,,,,,
21.78,0.00429,138.93,,,,,,,
21.8,0.00431,138.83,,,,,,,
21.83,0.00434,138.85,,,,,,,
21.88,0.00439,138.95,,,,,,,
21.93,0.00444,138.73,,,,,,,
21.98,0.00449,138.95,,,,,,,
22.03,0.00454,138.75,,,,,,,
22.08,0.00459,138.51,,,,,,,
22.27,0.00454,109.86,,,,,,,
22.3,0.0045,102.03,,,,,,,
22.31,0.00449,101.59,,,,,,,
22.34,0.00444,92.73,,,,,,,
22.38,0.00439,85.65,,,,,,,
22.42,0.00434,78.3,,,,,,,
22.46,0.00429,71.98,,,,,,,
22.51,0.00424,65.63,,,,,,,
22.57,0.00418,58.76,,,,,,,
22.62,0.00413,52.26,,,,,,,
22.68,0.00408,45.97,,,,,,,
22.73,0.00403,40.31,,,,,,,
22.78,0.00398,33.9,,,,,,,
22.8,0.00397,32.04,,,,,,,
22.84,0.00393,28.08,,,,,,,
22.88,0.00388,23.15,,,,,,,
22.94,0.00383,17.09,,,,,,,
23.0,0.00378,10.79,,,,,,,
23.04,0.00373,6.84,,,,,,,
23.1,0.00368,1.49,,,,,,,
23.16,0.00363,-3.69,,,,,,,
23.27,0.00357,-7.05,,,,,,,
23.3,0.00356,-8.02,,,,,,,
23.36,0.00352,-11.35,,,,,,,
23.44,0.00347,-15.93,,,,,,,
23.5,0.00342,-20.69,,,,,,,
23.56,0.00337,-27.46,,,,,,,
23.6,0.00332,-33.3,,,,,,,
23.63,0.00327,-36.49,,,,,,,
23.66,0.00322,-41.89,,,,,,,
23.71,0.00317,-47.2,,,,,,,
23.75,0.00312,-52.0,,,,,,,
23.79,0.00307,-57.63,,,,,,,
23.8,0.00304,-59.11,,,,,,,
23.82,0.00302,-62.2,,,,,,,
23.85,0.00297,-65.55,,,,,,,
23.89,0.00291,-70.65,,,,,,,
23.92,0.00286,-74.84,,,,,,,
23.96,0.00281,-78.72,,,,,,,
23.99,0.00276,-81.3,,,,,,,
24.04,0.00271,-84.8,,,,,,,
24.08,0.00266,-86.77,,,,,,,
24.13,0.00261,-89.39,,,,,,,
24.18,0.00256,-91.77,,,,,,,
24.24,0.00251,-93.9,,,,,,,
24.29,0.00246,-96.46,,,,,,,
24.3,0.00244,-96.68,,,,,,,
24.34,0.00241,-98.65,,,,,,,
24.38,0.00236,-100.1,,,,,,,
24.44,0.00231,-102.7,,,,,,,
24.49,0.00226,-104.6,,,,,,,
24.54,0.00221,-106.5,,,,,,,
24.58,0.00216,-107.9,,,,,,,
24.63,0.00211,-109.7,,,,,,,
24.69,0.00205,-112.1,,,,,,,
24.74,0.002,-112.8,,,,,,,
24.77,0.00195,-114.0,,,,,,,
24.8,0.00194,-114.5,,,,,,,
24.83,0.0019,-115.7,,,,,,,
24.89,0.00185,-116.2,,,,,,,
24.92,0.0018,-116.8,,,,,,,
24.98,0.00175,-118.1,,,,,,,
25.03,0.0017,-119.3,,,,,,,
25.09,0.00165,-119.8,,,,,,,
25.12,0.0016,-120.1,,,,,,,
25.17,0.00155,-121.2,,,,,,,
25.22,0.0015,-122.2,,,,,,,
25.27,0.00145,-122.2,,,,,,,
25.3,0.00142,-122.7,,,,,,,
25.32,0.0014,-122.8,,,,,,,
25.37,0.00134,-123.4,,,,,,,
25.43,0.00129,-123.8,,,,,,,
25.48,0.00124,-123.8,,,,,,,
25.54,0.00119,-124.5,,,,,,,
25.59,0.00114,-124.4,,,,,,,
25.63,0.00109,-125.0,,,,,,,
25.68,0.00103,-125.1,,,,,,,
25.73,0.00098,-125.2,,,,,,,
25.79,0.00093,-125.3,,,,,,,
25.8,0.00091,-124.9,,,,,,,
25.84,0.00088,-125.2,,,,,,,
25.9,0.00083,-125.3,,,,,,,
25.94,0.00077,-125.9,,,,,,,
26.0,0.00072,-125.8,,,,,,,
26.05,0.00067,-125.8,,,,,,,
26.1,0.00062,-126.0,,,,,,,
26.15,0.00057,-126.5,,,,,,,
26.2,0.00052,-126.5,,,,,,,
26.25,0.00047,-126.9,,,,,,,
26.3,0.00042,-126.9,,,,,,,
26.3,0.00041,-126.7,,,,,,,
26.35,0.00037,-127.5,,,,,,,
26.4,0.00032,-127.3,,,,,,,
26.45,0.00027,-127.6,,,,,,,
26.5,0.00022,-127.9,,,,,,,
26.55,0.00017,-127.7,,,,,,,
26.6,0.00012,-128.1,,,,,,,
26.65,7e-05,-128.0,,,,,,,
26.7,2e-05,-128.3,,,,,,,
26.75,-4e-05,-129.2,,,,,,,
26.8,-8e-05,-128.9,,,,,,,
26.8,-9e-05,-129.4,,,,,,,
26.85,-0.00014,-129.4,,,,,,,
26.9,-0.00019,-129.3,,,,,,,
26.95,-0.00024,-129.5,,,,,,,
27.0,-0.00029,-129.3,,,,,,,
27.06,-0.00034,-129.4,,,,,,,
27.11,-0.00039,-129.1,,,,,,,
27.16,-0.00044,-129.4,,,,,,,
27.21,-0.00049,-129.6,,,,,,,
27.26,-0.00054,-129.7,,,,,,,
27.3,-0.00059,-129.7,,,,,,,
27.3,-0.00059,-129.6,,,,,,,
27.35,-0.00064,-129.4,,,,,,,
27.4,-0.00069,-129.7,,,,,,,
27.45,-0.00074,-129.6,,,,,,,
27.5,-0.00079,-129.1,,,,,,,
27.55,-0.00084,-129.1,,,,,,,
27.61,-0.00089,-129.1,,,,,,,
27.66,-0.00094,-129.4,,,,,,,
27.71,-0.001,-129.1,,,,,,,
27.76,-0.00105,-129.7,,,,,,,
27.8,-0.00109,-129.6,,,,,,,
27.81,-0.0011,-129.8,,,,,,,
27.86,-0.00115,-130.1,,,,,,,
27.92,-0.0012,-130.0,,,,,,,
27.97,-0.00125,-130.4,,,,,,,
28.02,-0.0013,-130.3,,,,,,,
28.07,-0.00135,-130.9,,,,,,,
28.12,-0.0014,-131.7,,,,,,,
28.16,-0.00145,-132.0,,,,,,,
28.22,-0.0015,-131.8,,,,,,,
28.26,-0.00155,-132.1,,,,,,,
28.3,-0.00159,-132.1,,,,,,,
28.31,-0.0016,-132.2,,,,,,,
28.36,-0.00165,-131.4,,,,,,,
28.41,-0.0017,-131.8,,,,,,,
28.47,-0.00175,-131.4,,,,,,,
28.52,-0.00181,-131.6,,,,,,,
28.57,-0.00186,-131.8,,,,,,,
28.62,-0.00191,-132.0,,,,,,,
28.67,-0.00196,-132.4,,,,,,,
28.72,-0.00201,-132.6,,,,,,,
28.76,-0.00206,-132.4,,,,,,,
28.8,-0.0021,-132.5,,,,,,,
28.82,-0.00211,-132.0,,,,,,,
28.87,-0.00216,-132.3,,,,,,,
28.92,-0.00221,-132.3,,,,,,,
28.98,-0.00226,-131.8,,,,,,,
29.03,-0.00231,-131.9,,,,,,,
29.08,-0.00236,-132.4,,,,,,,
29.13,-0.00242,-132.8,,,,,,,
29.18,-0.00247,-132.7,,,,,,,
29.22,-0.00252,-133.1,,,,,,,
29.27,-0.00257,-133.1,,,,,,,
29.3,-0.00259,-133.5,,,,,,,
29.32,-0.00262,-133.3,,,,,,,
29.38,-0.00267,-133.0,,,,,,,
29.42,-0.00272,-133.1,,,,,,,
29.48,-0.00277,-133.2,,,,,,,
29.53,-0.00282,-133.0,,,,,,,
29.58,-0.00287,-132.8,,,,,,,
29.63,-0.00292,-133.0,,,,,,,
29.68,-0.00297,-133.2,,,,,,,
29.73,-0.00302,-133.1,,,,,,,
29.78,-0.00307,-133.4,,,,,,,
29.8,-0.00309,-133.6,,,,,,,
29.83,-0.00312,-133.3,,,,,,,
29.89,-0.00318,-133.6,,,,,,,
29.93,-0.00323,-133.3,,,,,,,
29.98,-0.00328,-133.5,,,,,,,
30.04,-0.00333,-133.3,,,,,,,
30.09,-0.00338,-133.9,,,,,,,
30.14,-0.00343,-134.0,,,,,,,
30.19,-0.00348,-134.1,,,,,,,
30.24,-0.00353,-134.5,,,,,,,
30.29,-0.00358,-134.5,,,,,,,
30.3,-0.00359,-135.1,,,,,,,
30.34,-0.00363,-135.0,,,,,,,
30.39,-0.00368,-135.5,,,,,,,
30.44,-0.00373,-135.5,,,,,,,
30.49,-0.00378,-136.1,,,,,,,
30.54,-0.00383,-136.3,,,,,,,
30.59,-0.00388,-136.0,,,,,,,
30.64,-0.00393,-135.7,,,,,,,
30.69,-0.00399,-135.7,,,,,,,
30.74,-0.00404,-136.0,,,,,,,
30.79,-0.00409,-136.0,,,,,,,
30.8,-0.00409,-136.1,,,,,,,
30.85,-0.00414,-136.0,,,,,,,
30.89,-0.00419,-135.7,,,,,,,
30.94,-0.00424,-135.9,,,,,,,
30.99,-0.00429,-136.0,,,,,,,
31.04,-0.00434,-135.6,,,,,,,
31.09,-0.00439,-135.6,,,,,,,
31.14,-0.00444,-135.9,,,,,,,
31.2,-0.00449,-135.7,,,,,,,
31.25,-0.00454,-136.2,,,,,,,
31.3,-0.00459,-135.6,,,,,,,
31.3,-0.00459,-135.8,,,,,,,
31.46,-0.00454,-108.6,,,,,,,
31.5,-0.00449,-100.0,,,,,,,
31.53,-0.00444,-92.31,,,,,,,
31.57,-0.00439,-83.5,,,,,,,
31.61,-0.00434,-76.21,,,,,,,
31.66,-0.00429,-68.19,,,,,,,
31.7,-0.00423,-62.21,,,,,,,
31.75,-0.00418,-55.68,,,,,,,
31.8,-0.00414,-49.75,,,,,,,
31.81,-0.00413,-48.37,,,,,,,
31.87,-0.00408,-41.24,,,,,,,
31.92,-0.00403,-35.41,,,,,,,
31.98,-0.00398,-28.5,,,,,,,
32.03,-0.00393,-22.53,,,,,,,
32.08,-0.00388,-16.92,,,,,,,
32.13,-0.00383,-11.19,,,,,,,
32.18,-0.00378,-5.27,,,,,,,
32.24,-0.00373,0.44,,,,,,,
32.29,-0.00368,5.4,,,,,,,
32.3,-0.00366,6.33,,,,,,,
32.34,-0.00363,10.31,,,,,,,
32.39,-0.00358,15.38,,,,,,,
32.45,-0.00353,20.68,,,,,,,
32.5,-0.00347,26.06,,,,,,,
32.56,-0.00342,31.23,,,,,,,
32.62,-0.00337,34.74,,,,,,,
32.71,-0.00332,38.35,,,,,,,
32.8,-0.00328,41.88,,,,,,,
32.81,-0.00327,42.58,,,,,,,
32.86,-0.00322,47.89,,,,,,,
32.9,-0.00317,54.32,,,,,,,
32.93,-0.00312,59.45,,,,,,,
32.97,-0.00307,63.77,,,,,,,
33.01,-0.00302,68.07,,,,,,,
33.07,-0.00297,71.68,,,,,,,
33.13,-0.00292,74.81,,,,,,,
33.2,-0.00287,78.31,,,,,,,
33.26,-0.00282,81.92,,,,,,,
33.3,-0.00278,84.34,,,,,,,
33.31,-0.00277,85.02,,,,,,,
33.37,-0.00272,89.22,,,,,,,
33.41,-0.00267,94.15,,,,,,,
33.44,-0.00262,98.74,,,,,,,
33.48,-0.00256,103.26,,,,,,,
33.51,-0.00251,107.55,,,,,,,
33.54,-0.00246,111.3,,,,,,,
33.58,-0.00241,114.73,,,,,,,
33.61,-0.00236,117.46,,,,,,,
33.65,-0.00231,120.04,,,,,,,
33.69,-0.00226,121.58,,,,,,,
33.74,-0.00221,123.35,,,,,,,
33.78,-0.00216,124.36,,,,,,,
33.8,-0.00214,124.8,,,,,,,
33.83,-0.00211,125.42,,,,,,,
33.88,-0.00206,126.17,,,,,,,
33.93,-0.00201,127.18,,,,,,,
33.98,-0.00196,127.95,,,,,,,
34.03,-0.00191,128.59,,,,,,,
34.08,-0.00185,129.11,,,,,,,
34.13,-0.0018,129.82,,,,,,,
34.18,-0.00175,129.96,,,,,,,
34.23,-0.0017,130.93,,,,,,,
34.27,-0.00165,131.18,,,,,,,
34.3,-0.00163,131.31,,,,,,,
34.33,-0.0016,131.26,,,,,,,
34.38,-0.00155,131.58,,,,,,,
34.42,-0.0015,131.76,,,,,,,
34.47,-0.00145,132.19,,,,,,,
34.53,-0.0014,131.79,,,,,,,
34.57,-0.00135,132.11,,,,,,,
34.63,-0.0013,131.7,,,,,,,
34.68,-0.00125,131.54,,,,,,,
34.73,-0.0012,131.67,,,,,,,
34.78,-0.00114,131.92,,,,,,,
34.8,-0.00112,131.85,,,,,,,
34.83,-0.00109,131.7,,,,,,,
34.88,-0.00104,131.86,,,,,,,
34.93,-0.00099,132.3,,,,,,,
34.98,-0.00094,132.21,,,,,,,
35.03,-0.00089,132.15,,,,,,,
35.08,-0.00084,132.44,,,,,,,
35.13,-0.00079,132.8,,,,,,,
35.18,-0.00074,133.0,,,,,,,
35.23,-0.00069,132.86,,,,,,,
35.28,-0.00064,133.13,,,,,,,
35.3,-0.00062,133.31,,,,,,,
35.34,-0.00059,133.69,,,,,,,
35.38,-0.00054,133.21,,,,,,,
35.43,-0.00049,133.15,,,,,,,
35.48,-0.00044,133.57,,,,,,,
35.53,-0.00038,133.43,,,,,,,
35.58,-0.00033,133.09,,,,,,,
35.64,-0.00028,133.55,,,,,,,
35.69,-0.00023,133.36,,,,,,,
35.74,-0.00018,133.45,,,,,,,
35.78,-0.00013,133.52,,,,,,,
35.8,-0.00012,133.46,,,,,,,
35.84,-8e-05,133.73,,,,,,,
74.71,-4e-05,134.58,,,,,,,
74.76,1e-05,134.23,,,,,,,
74.8,5e-05,133.91,,,,,,,
74.81,6e-05,133.61,,,,,,,
74.87,0.00011,133.11,,,,,,,
74.92,0.00016,133.11,,,,,,,
74.97,0.00021,133.8,,,,,,,
75.02,0.00026,133.45,,,,,,,
75.07,0.00031,133.7,,,,,,,
75.11,0.00036,134.01,,,,,,,
75.17,0.00041,134.34,,,,,,,
75.22,0.00046,134.53,,,,,,,
75.27,0.00051,134.97,,,,,,,
75.3,0.00054,135.15,,,,,,,
75.32,0.00056,135.73,,,,,,,
75.37,0.00061,135.15,,,,,,,
75.42,0.00066,135.49,,,,,,,
75.47,0.00071,135.35,,,,,,,
75.52,0.00077,135.56,,,,,,,
75.57,0.00082,135.84,,,,,,,
75.62,0.00087,135.72,,,,,,,
75.67,0.00092,135.39,,,,,,,
75.72,0.00097,135.56,,,,,,,
75.77,0.00102,135.56,,,,,,,
75.8,0.00105,135.57,,,,,,,
75.82,0.00107,135.65,,,,,,,
75.88,0.00112,135.32,,,,,,,
75.93,0.00117,135.77,,,,,,,
75.98,0.00122,135.86,,,,,,,
76.03,0.00127,135.57,,,,,,,
76.08,0.00132,135.66,,,,,,,
76.13,0.00137,135.89,,,,,,,
76.18,0.00142,136.3,,,,,,,
76.22,0.00147,136.34,,,,,,,
76.27,0.00152,136.59,,,,,,,
76.3,0.00155,136.37,,,,,,,
76.32,0.00157,136.24,,,,,,,
76.38,0.00162,136.54,,,,,,,
76.43,0.00167,136.42,,,,,,,
76.48,0.00172,136.57,,,,,,,
76.53,0.00178,136.48,,,,,,,
76.58,0.00183,136.85,,,,,,,
76.63,0.00188,136.86,,,,,,,
76.68,0.00193,136.89,,,,,,,
76.73,0.00198,137.25,,,,,,,
76.77,0.00203,137.57,,,,,,,
76.8,0.00205,137.45,,,,,,,
76.83,0.00208,137.74,,,,,,,
76.88,0.00213,137.35,,,,,,,
76.93,0.00218,137.0,,,,,,,
76.98,0.00223,136.79,,,,,,,
77.03,0.00228,137.44,,,,,,,
77.09,0.00233,137.1,,,,,,,
77.13,0.00239,137.83,,,,,,,
77.19,0.00244,137.81,,,,,,,
77.24,0.00249,138.08,,,,,,,
77.29,0.00254,138.51,,,,,,,
77.3,0.00256,138.41,,,,,,,
77.34,0.00259,138.72,,,,,,,
77.38,0.00264,138.65,,,,,,,
77.44,0.00269,138.84,,,,,,,
77.48,0.00274,138.44,,,,,,,
77.54,0.0028,138.88,,,,,,,
77.59,0.00285,138.26,,,,,,,
77.64,0.0029,138.09,,,,,,,
77.69,0.00295,138.07,,,,,,,
77.74,0.003,137.87,,,,,,,
77.8,0.00305,138.46,,,,,,,
77.8,0.00305,137.89,,,,,,,
77.84,0.0031,138.35,,,,,,,
77.89,0.00315,138.14,,,,,,,
77.95,0.0032,138.16,,,,,,,
78.0,0.00325,138.07,,,,,,,
78.05,0.0033,139.01,,,,,,,
78.1,0.00335,138.69,,,,,,,
78.15,0.0034,138.71,,,,,,,
78.2,0.00345,139.07,,,,,,,
78.25,0.0035,139.14,,,,,,,
78.3,0.00355,139.08,,,,,,,
78.3,0.00356,138.9,,,,,,,
78.35,0.00361,139.04,,,,,,,
78.4,0.00366,138.85,,,,,,,
78.45,0.00371,139.28,,,,,,,
78.5,0.00376,138.72,,,,,,,
78.55,0.00381,139.14,,,,,,,
78.6,0.00386,139.43,,,,,,,
78.65,0.00391,139.04,,,,,,,
78.7,0.00396,138.77,,,,,,,
78.75,0.00401,139.05,,,,,,,
78.8,0.00406,138.73,,,,,,,
78.8,0.00406,138.91,,,,,,,
78.86,0.00411,138.93,,,,,,,
78.91,0.00416,138.89,,,,,,,
78.96,0.00421,139.1,,,,,,,
79.01,0.00426,139.1,,,,,,,
79.06,0.00431,139.15,,,,,,,
79.11,0.00436,139.16,,,,,,,
79.16,0.00441,139.65,,,,,,,
79.21,0.00447,139.96,,,,,,,
79.26,0.00452,140.01,,,,,,,
79.3,0.00456,139.86,,,,,,,
79.31,0.00457,140.22,,,,,,,
79.35,0.00462,140.3,,,,,,,
79.4,0.00467,139.76,,,,,,,
79.46,0.00472,139.88,,,,,,,
79.5,0.00477,139.75,,,,,,,
79.55,0.00482,138.96,,,,,,,
79.6,0.00487,139.08,,,,,,,
79.66,0.00492,138.68,,,,,,,
79.71,0.00497,138.54,,,,,,,
79.78,0.00502,136.3,,,,,,,
79.8,0.00503,134.0,,,,,,,
79.89,0.00497,117.49,,,,,,,
79.93,0.00492,108.14,,,,,,,
79.96,0.00487,100.2,,,,,,,
80.0,0.00482,92.78,,,,,,,
80.04,0.00477,85.11,,,,,,,
80.08,0.00472,78.03,,,,,,,
80.12,0.00467,71.61,,,,,,,
80.18,0.00462,64.77,,,,,,,
80.23,0.00456,58.13,,,,,,,
80.29,0.00451,52.6,,,,,,,
80.3,0.0045,50.85,,,,,,,
80.34,0.00446,46.79,,,,,,,
80.38,0.00441,42.28,,,,,,,
80.44,0.00436,35.77,,,,,,,
80.49,0.00431,30.04,,,,,,,
80.55,0.00426,25.04,,,,,,,
80.61,0.00421,18.82,,,,,,,
80.66,0.00416,13.57,,,,,,,
80.71,0.00411,8.55,,,,,,,
80.77,0.00405,3.84,,,,,,,
80.8,0.00403,-0.01,,,,,,,
80.83,0.004,-2.28,,,,,,,
80.89,0.00395,-5.7,,,,,,,
81.01,0.0039,-8.83,,,,,,,
81.09,0.00385,-13.31,,,,,,,
81.17,0.0038,-18.29,,,,,,,
81.23,0.00375,-23.53,,,,,,,
81.27,0.0037,-28.27,,,,,,,
81.3,0.00367,-32.19,,,,,,,
81.32,0.00365,-34.25,,,,,,,
81.35,0.0036,-40.76,,,,,,,
81.39,0.00354,-46.2,,,,,,,
81.43,0.00349,-50.68,,,,,,,
81.46,0.00344,-55.23,,,,,,,
81.5,0.00339,-60.73,,,,,,,
81.52,0.00334,-64.94,,,,,,,
81.55,0.00329,-69.16,,,,,,,
81.6,0.00324,-74.05,,,,,,,
81.63,0.00319,-77.36,,,,,,,
81.67,0.00313,-80.91,,,,,,,
81.71,0.00308,-83.81,,,,,,,
81.76,0.00303,-86.16,,,,,,,
81.8,0.00299,-88.74,,,,,,,
81.8,0.00298,-88.72,,,,,,,
81.85,0.00293,-90.94,,,,,,,
81.9,0.00288,-93.06,,,,,,,
81.95,0.00283,-95.06,,,,,,,
82.0,0.00278,-97.1,,,,,,,
82.05,0.00273,-99.56,,,,,,,
82.11,0.00268,-101.9,,,,,,,
82.15,0.00263,-103.8,,,,,,,
82.21,0.00258,-106.3,,,,,,,
82.26,0.00253,-108.0,,,,,,,
82.3,0.00249,-109.7,,,,,,,
82.31,0.00247,-109.9,,,,,,,
82.36,0.00242,-111.8,,,,,,,
82.41,0.00237,-113.2,,,,,,,
82.46,0.00232,-114.6,,,,,,,
82.51,0.00227,-116.3,,,,,,,
82.57,0.00221,-117.2,,,,,,,
82.6,0.00216,-118.3,,,,,,,
82.65,0.00211,-119.2,,,,,,,
82.7,0.00206,-119.7,,,,,,,
82.77,0.00201,-120.1,,,,,,,
82.8,0.00197,-121.3,,,,,,,
82.82,0.00196,-121.5,,,,,,,
82.85,0.00191,-121.5,,,,,,,
82.92,0.00186,-122.0,,,,,,,
82.96,0.00181,-122.9,,,,,,,
83.02,0.00176,-122.9,,,,,,,
83.06,0.0017,-123.4,,,,,,,
83.12,0.00165,-123.5,,,,,,,
83.15,0.0016,-123.8,,,,,,,
83.21,0.00155,-124.4,,,,,,,
83.26,0.0015,-124.1,,,,,,,
83.3,0.00146,-124.6,,,,,,,
83.31,0.00145,-124.7,,,,,,,
83.37,0.0014,-124.2,,,,,,,
83.42,0.00135,-124.4,,,,,,,
83.47,0.0013,-124.5,,,,,,,
83.52,0.00124,-124.8,,,,,,,
83.57,0.00119,-125.6,,,,,,,
83.62,0.00114,-125.8,,,,,,,
83.68,0.00109,-126.2,,,,,,,
83.73,0.00104,-126.1,,,,,,,
83.77,0.00099,-126.2,,,,,,,
83.8,0.00097,-126.7,,,,,,,
83.82,0.00094,-126.8,,,,,,,
83.87,0.00089,-126.6,,,,,,,
83.92,0.00084,-127.3,,,,,,,
83.97,0.00079,-127.1,,,,,,,
84.02,0.00074,-127.2,,,,,,,
84.07,0.00069,-127.2,,,,,,,
84.12,0.00064,-127.3,,,,,,,
84.18,0.00059,-127.7,,,,,,,
84.23,0.00054,-128.0,,,,,,,
84.28,0.00049,-127.8,,,,,,,
84.3,0.00046,-128.1,,,,,,,
84.33,0.00044,-128.3,,,,,,,
84.37,0.00039,-127.9,,,,,,,
84.42,0.00034,-128.0,,,,,,,
84.48,0.00029,-128.0,,,,,,,
84.52,0.00024,-128.1,,,,,,,
84.58,0.00019,-128.6,,,,,,,
84.63,0.00013,-128.4,,,,,,,
84.68,8e-05,-128.9,,,,,,,
84.72,3e-05,-128.9,,,,,,,
84.77,-2e-05,-128.9,,,,,,,
84.8,-4e-05,-129.0,,,,,,,
84.83,-7e-05,-128.7,,,,,,,
84.88,-0.00012,-129.1,,,,,,,
84.93,-0.00017,-128.9,,,,,,,
84.98,-0.00022,-128.6,,,,,,,
85.03,-0.00027,-129.2,,,,,,,
85.08,-0.00032,-129.7,,,,,,,
85.13,-0.00037,-129.5,,,,,,,
85.18,-0.00042,-129.8,,,,,,,
85.23,-0.00047,-129.5,,,,,,,
85.28,-0.00052,-129.5,,,,,,,
85.3,-0.00054,-129.7,,,,,,,
85.33,-0.00057,-129.3,,,,,,,
85.38,-0.00062,-129.6,,,,,,,
85.43,-0.00067,-129.8,,,,,,,
85.48,-0.00072,-130.1,,,,,,,
85.53,-0.00078,-130.0,,,,,,,
85.58,-0.00083,-129.8,,,,,,,
85.64,-0.00088,-130.1,,,,,,,
85.69,-0.00093,-130.4,,,,,,,
85.74,-0.00098,-130.8,,,,,,,
85.79,-0.00103,-131.0,,,,,,,
85.8,-0.00104,-131.3,,,,,,,
85.84,-0.00108,-131.4,,,,,,,
85.89,-0.00113,-131.9,,,,,,,
85.93,-0.00118,-131.9,,,,,,,
85.98,-0.00123,-131.9,,,,,,,
86.04,-0.00128,-131.8,,,,,,,
86.09,-0.00133,-131.4,,,,,,,
86.13,-0.00138,-131.4,,,,,,,
86.19,-0.00143,-131.3,,,,,,,
86.23,-0.00149,-131.0,,,,,,,
86.29,-0.00154,-130.8,,,,,,,
86.3,-0.00155,-131.0,,,,,,,
86.35,-0.00159,-130.9,,,,,,,
86.4,-0.00164,-130.7,,,,,,,
86.46,-0.00169,-130.9,,,,,,,
86.49,-0.00174,-131.3,,,,,,,
86.54,-0.00179,-131.6,,,,,,,
86.6,-0.00185,-131.7,,,,,,,
86.65,-0.0019,-132.3,,,,,,,
86.71,-0.00195,-132.1,,,,,,,
86.74,-0.002,-132.2,,,,,,,
86.8,-0.00205,-132.2,,,,,,,
86.8,-0.00206,-132.3,,,,,,,
86.85,-0.0021,-131.8,,,,,,,
86.91,-0.00216,-131.6,,,,,,,
86.96,-0.00221,-131.9,,,,,,,
87.01,-0.00226,-131.4,,,,,,,
87.06,-0.00231,-131.3,,,,,,,
87.11,-0.00236,-131.4,,,,,,,
87.17,-0.00241,-131.7,,,,,,,
87.22,-0.00246,-132.2,,,,,,,
87.28,-0.00251,-132.8,,,,,,,
87.3,-0.00254,-132.9,,,,,,,
87.32,-0.00256,-132.6,,,,,,,
87.37,-0.00261,-133.1,,,,,,,
87.42,-0.00266,-133.5,,,,,,,
87.47,-0.00272,-133.2,,,,,,,
87.52,-0.00277,-133.3,,,,,,,
87.56,-0.00282,-134.2,,,,,,,
87.62,-0.00287,-134.1,,,,,,,
87.67,-0.00292,-134.0,,,,,,,
87.72,-0.00297,-133.7,,,,,,,
87.77,-0.00302,-134.1,,,,,,,
87.8,-0.00305,-134.3,,,,,,,
87.82,-0.00307,-134.2,,,,,,,
87.87,-0.00312,-133.7,,,,,,,
87.92,-0.00317,-133.6,,,,,,,
87.97,-0.00322,-134.2,,,,,,,
88.02,-0.00327,-134.1,,,,,,,
88.07,-0.00332,-134.3,,,,,,,
88.12,-0.00337,-134.6,,,,,,,
88.17,-0.00342,-134.1,,,,,,,
88.22,-0.00347,-134.2,,,,,,,
88.28,-0.00352,-134.4,,,,,,,
88.3,-0.00355,-134.6,,,,,,,
88.32,-0.00358,-134.6,,,,,,,
88.38,-0.00363,-134.9,,,,,,,
88.43,-0.00368,-134.6,,,,,,,
88.48,-0.00373,-135.2,,,,,,,
88.53,-0.00378,-135.3,,,,,,,
88.57,-0.00383,-135.7,,,,,,,
88.64,-0.00388,-135.3,,,,,,,
88.68,-0.00393,-135.6,,,,,,,
88.73,-0.00398,-135.4,,,,,,,
88.77,-0.00403,-135.5,,,,,,,
88.8,-0.00406,-135.9,,,,,,,
88.82,-0.00408,-135.3,,,,,,,
88.88,-0.00413,-135.4,,,,,,,
88.93,-0.00419,-135.3,,,,,,,
88.98,-0.00424,-135.7,,,,,,,
89.03,-0.00429,-135.5,,,,,,,
89.08,-0.00434,-135.3,,,,,,,
89.13,-0.00439,-135.5,,,,,,,
89.18,-0.00444,-135.8,,,,,,,
89.23,-0.00449,-136.1,,,,,,,
89.29,-0.00454,-136.1,,,,,,,
89.3,-0.00455,-136.3,,,,,,,
89.34,-0.00459,-136.2,,,,,,,
89.39,-0.00464,-136.0,,,,,,,
89.44,-0.00469,-136.3,,,,,,,
89.49,-0.00474,-136.8,,,,,,,
89.54,-0.00479,-136.8,,,,,,,
89.59,-0.00484,-137.0,,,,,,,
89.64,-0.00489,-137.0,,,,,,,
89.69,-0.00495,-137.0,,,,,,,
89.74,-0.005,-136.2,,,,,,,
89.8,-0.00503,-131.9,,,,,,,
89.9,-0.00494,-109.8,,,,,,,
89.94,-0.00489,-101.4,,,,,,,
89.97,-0.00484,-92.68,,,,,,,
90.01,-0.00479,-85.39,,,,,,,
90.05,-0.00474,-77.53,,,,,,,
90.09,-0.00469,-70.88,,,,,,,
90.13,-0.00464,-64.52,,,,,,,
90.18,-0.00459,-58.02,,,,,,,
90.24,-0.00454,-50.73,,,,,,,
90.3,-0.00449,-44.39,,,,,,,
90.36,-0.00444,-37.91,,,,,,,
90.41,-0.00439,-31.73,,,,,,,
90.46,-0.00434,-25.85,,,,,,,
90.51,-0.00429,-19.66,,,,,,,
90.57,-0.00424,-14.0,,,,,,,
90.62,-0.00419,-8.93,,,,,,,
90.67,-0.00414,-3.45,,,,,,,
90.72,-0.00409,1.49,,,,,,,
90.77,-0.00404,6.88,,,,,,,
90.8,-0.00401,9.23,,,,,,,
90.83,-0.00399,12.37,,,,,,,
90.88,-0.00393,17.29,,,,,,,
90.94,-0.00388,22.85,,,,,,,
90.99,-0.00383,27.94,,,,,,,
91.05,-0.00378,33.11,,,,,,,
91.12,-0.00373,36.51,,,,,,,
91.22,-0.00368,39.4,,,,,,,
91.3,-0.00363,44.25,,,,,,,
91.3,-0.00363,43.93,,,,,,,
91.35,-0.00358,50.19,,,,,,,
91.38,-0.00353,55.49,,,,,,,
91.41,-0.00348,60.73,,,,,,,
91.45,-0.00343,65.11,,,,,,,
91.5,-0.00338,69.19,,,,,,,
91.56,-0.00332,72.36,,,,,,,
91.63,-0.00327,75.41,,,,,,,
91.69,-0.00322,78.94,,,,,,,
91.75,-0.00317,83.04,,,,,,,
91.8,-0.00313,86.04,,,,,,,
91.81,-0.00312,86.67,,,,,,,
91.85,-0.00307,91.02,,,,,,,
91.89,-0.00302,95.57,,,,,,,
91.92,-0.00297,99.95,,,,,,,
91.96,-0.00292,104.38,,,,,,,
91.99,-0.00287,107.82,,,,,,,
92.02,-0.00282,111.47,,,,,,,
92.06,-0.00277,114.69,,,,,,,
92.1,-0.00272,117.26,,,,,,,
92.14,-0.00267,119.82,,,,,,,
92.18,-0.00262,121.24,,,,,,,
92.23,-0.00257,122.97,,,,,,,
92.27,-0.00251,123.94,,,,,,,
92.3,-0.00249,124.53,,,,,,,
92.32,-0.00246,125.07,,,,,,,
92.37,-0.00241,126.06,,,,,,,
92.42,-0.00236,126.95,,,,,,,
92.47,-0.00231,127.56,,,,,,,
92.52,-0.00226,128.19,,,,,,,
92.57,-0.00221,128.68,,,,,,,
92.62,-0.00216,129.52,,,,,,,
92.67,-0.00211,130.46,,,,,,,
92.72,-0.00206,131.13,,,,,,,
92.76,-0.00201,131.71,,,,,,,
92.8,-0.00197,131.88,,,,,,,
92.82,-0.00196,132.46,,,,,,,
92.87,-0.00191,132.45,,,,,,,
92.92,-0.00186,132.88,,,,,,,
92.97,-0.00181,132.59,,,,,,,
93.02,-0.00176,132.75,,,,,,,
93.07,-0.00171,133.31,,,,,,,
93.12,-0.00166,133.91,,,,,,,
93.17,-0.00161,134.39,,,,,,,
93.22,-0.00155,134.63,,,,,,,
93.27,-0.0015,134.9,,,,,,,
93.3,-0.00147,134.72,,,,,,,
93.32,-0.00145,134.83,,,,,,,
93.37,-0.0014,134.94,,,,,,,
93.42,-0.00135,135.01,,,,,,,
93.47,-0.0013,135.57,,,,,,,
93.51,-0.00125,135.13,,,,,,,
93.56,-0.0012,134.96,,,,,,,
93.62,-0.00115,135.4,,,,,,,
93.67,-0.0011,134.96,,,,,,,
93.72,-0.00105,135.13,,,,,,,
93.77,-0.001,134.38,,,,,,,
93.8,-0.00096,134.36,,,,,,,
93.82,-0.00095,134.69,,,,,,,
93.86,-0.0009,134.03,,,,,,,
93.91,-0.00085,134.3,,,,,,,
93.96,-0.0008,134.24,,,,,,,
94.02,-0.00075,133.9,,,,,,,
94.07,-0.0007,133.72,,,,,,,
94.13,-0.00065,133.39,,,,,,,
94.17,-0.00059,133.96,,,,,,,
94.23,-0.00054,134.2,,,,,,,
94.28,-0.00049,134.93,,,,,,,
94.3,-0.00047,134.6,,,,,,,
94.33,-0.00044,134.92,,,,,,,
94.38,-0.00039,135.23,,,,,,,
94.43,-0.00034,135.47,,,,,,,
94.48,-0.00029,136.01,,,,,,,
94.52,-0.00024,135.95,,,,,,,
94.57,-0.00019,135.92,,,,,,,
94.62,-0.00014,135.61,,,,,,,
94.67,-9e-05,135.52,,,,,,,
174.74,-6e-05,135.27,,,,,,,
174.8,-1e-05,135.15,,,,,,,
174.8,0.0,135.12,,,,,,,
174.85,5e-05,135.2,,,,,,,
174.9,0.0001,135.04,,,,,,,
174.95,0.00015,134.78,,,,,,,
175.0,0.0002,134.53,,,,,,,
175.05,0.00025,134.71,,,,,,,
175.1,0.0003,134.39,,,,,,,
175.15,0.00035,135.14,,,,,,,
175.19,0.0004,134.92,,,,,,,
175.25,0.00045,134.52,,,,,,,
175.3,0.0005,134.65,,,,,,,
175.3,0.0005,134.58,,,,,,,
175.35,0.00055,134.42,,,,,,,
175.4,0.0006,134.62,,,,,,,
175.44,0.00065,134.53,,,,,,,
175.5,0.0007,135.3,,,,,,,
175.56,0.00075,135.27,,,,,,,
175.6,0.0008,135.57,,,,,,,
175.65,0.00085,135.93,,,,,,,
175.7,0.00091,135.91,,,,,,,
175.75,0.00096,136.03,,,,,,,
175.8,0.001,136.04,,,,,,,
175.81,0.00101,136.2,,,,,,,
175.86,0.00106,136.52,,,,,,,
175.91,0.00111,136.63,,,,,,,
175.96,0.00116,136.52,,,,,,,
176.01,0.00121,136.44,,,,,,,
176.06,0.00126,136.87,,,,,,,
176.11,0.00131,137.05,,,,,,,
176.16,0.00136,136.65,,,,,,,
176.21,0.00141,136.84,,,,,,,
176.26,0.00146,136.98,,,,,,,
176.3,0.0015,136.74,,,,,,,
176.31,0.00151,136.71,,,,,,,
176.35,0.00156,136.49,,,,,,,
176.41,0.00161,136.57,,,,,,,
176.45,0.00166,136.78,,,,,,,
176.51,0.00171,136.34,,,,,,,
176.56,0.00176,136.28,,,,,,,
176.61,0.00182,136.5,,,,,,,
176.67,0.00187,136.34,,,,,,,
176.72,0.00192,136.91,,,,,,,
176.77,0.00197,137.11,,,,,,,
176.8,0.002,137.17,,,,,,,
176.82,0.00202,137.61,,,,,,,
176.86,0.00207,137.44,,,,,,,
176.91,0.00212,137.72,,,,,,,
176.96,0.00217,138.0,,,,,,,
177.01,0.00222,137.77,,,,,,,
177.06,0.00227,138.19,,,,,,,
177.11,0.00232,137.6,,,,,,,
177.16,0.00237,137.64,,,,,,,
177.21,0.00242,137.77,,,,,,,
177.26,0.00247,137.61,,,,,,,
177.3,0.00251,137.68,,,,,,,
177.31,0.00252,137.7,,,,,,,
177.36,0.00257,137.61,,,,,,,
177.42,0.00262,137.77,,,,,,,
177.46,0.00267,137.74,,,,,,,
177.51,0.00273,137.58,,,,,,,
177.58,0.00278,137.9,,,,,,,
177.62,0.00283,137.61,,,,,,,
177.67,0.00288,138.3,,,,,,,
177.72,0.00293,137.73,,,,,,,
177.77,0.00298,138.07,,,,,,,
177.8,0.00301,138.32,,,,,,,
177.82,0.00303,138.31,,,,,,,
177.87,0.00308,138.55,,,,,,,
177.92,0.00313,138.26,,,,,,,
177.97,0.00318,138.69,,,,,,,
178.02,0.00324,138.91,,,,,,,
178.08,0.00329,139.1,,,,,,,
178.12,0.00334,138.82,,,,,,,
178.18,0.00339,138.59,,,,,,,
178.23,0.00344,138.5,,,,,,,
178.28,0.00349,138.69,,,,,,,
178.3,0.00351,138.94,,,,,,,
178.33,0.00354,138.73,,,,,,,
178.37,0.00359,139.04,,,,,,,
178.43,0.00364,138.58,,,,,,,
178.48,0.00369,138.11,,,,,,,
178.53,0.00374,137.94,,,,,,,
178.59,0.00379,138.09,,,,,,,
178.63,0.00384,138.09,,,,,,,
178.68,0.0039,137.95,,,,,,,
178.74,0.00395,138.45,,,,,,,
178.79,0.004,138.13,,,,,,,
178.8,0.00401,138.56,,,,,,,
178.84,0.00405,138.29,,,,,,,
178.89,0.0041,138.47,,,,,,,
178.93,0.00415,139.11,,,,,,,
178.99,0.0042,138.98,,,,,,,
179.04,0.00425,139.2,,,,,,,
179.09,0.0043,139.58,,,,,,,
179.14,0.00435,139.94,,,,,,,
179.19,0.0044,140.11,,,,,,,
179.24,0.00445,140.14,,,,,,,
179.29,0.0045,140.1,,,,,,,
179.3,0.00452,140.33,,,,,,,
179.34,0.00455,140.37,,,,,,,
179.39,0.0046,140.09,,,,,,,
179.44,0.00465,140.34,,,,,,,
179.49,0.0047,139.86,,,,,,,
179.54,0.00475,140.06,,,,,,,
179.59,0.0048,140.16,,,,,,,
179.64,0.00485,139.76,,,,,,,
179.69,0.00491,139.53,,,,,,,
179.74,0.00496,140.23,,,,,,,
179.8,0.00501,139.27,,,,,,,
179.8,0.00501,139.44,,,,,,,
179.95,0.00496,113.62,,,,,,,
179.98,0.0049,105.32,,,,,,,
180.02,0.00485,97.35,,,,,,,
180.06,0.0048,89.7,,,,,,,
180.09,0.00475,82.74,,,,,,,
180.14,0.0047,75.22,,,,,,,
180.19,0.00465,68.49,,,,,,,
180.24,0.0046,61.83,,,,,,,
180.3,0.00455,54.64,,,,,,,
180.3,0.00455,54.65,,,,,,,
180.35,0.0045,48.03,,,,,,,
180.41,0.00445,41.49,,,,,,,
180.46,0.0044,35.65,,,,,,,
180.51,0.00435,29.51,,,,,,,
180.57,0.0043,23.59,,,,,,,
180.62,0.00425,17.64,,,,,,,
180.67,0.00419,12.31,,,,,,,
180.73,0.00414,6.46,,,,,,,
180.78,0.00409,0.59,,,,,,,
180.8,0.00408,-0.53,,,,,,,
180.83,0.00404,-3.47,,,,,,,
180.9,0.00399,-6.97,,,,,,,
181.03,0.00394,-10.18,,,,,,,
181.12,0.00389,-15.52,,,,,,,
181.18,0.00384,-19.59,,,,,,,
181.23,0.00379,-23.59,,,,,,,
181.28,0.00374,-30.04,,,,,,,
181.3,0.0037,-32.11,,,,,,,
181.32,0.00369,-34.95,,,,,,,
181.35,0.00364,-40.73,,,,,,,
181.38,0.00359,-45.11,,,,,,,
181.43,0.00354,-50.79,,,,,,,
181.46,0.00349,-54.79,,,,,,,
181.5,0.00343,-60.48,,,,,,,
181.53,0.00338,-65.31,,,,,,,
181.57,0.00333,-70.48,,,,,,,
181.59,0.00328,-73.25,,,,,,,
181.63,0.00323,-77.33,,,,,,,
181.67,0.00318,-80.74,,,,,,,
181.72,0.00313,-83.72,,,,,,,
181.77,0.00308,-87.32,,,,,,,
181.8,0.00303,-88.98,,,,,,,
181.8,0.00302,-88.78,,,,,,,
181.85,0.00298,-91.88,,,,,,,
181.9,0.00293,-93.74,,,,,,,
181.96,0.00288,-95.8,,,,,,,
182.0,0.00283,-97.72,,,,,,,
182.05,0.00278,-99.07,,,,,,,
182.11,0.00272,-101.5,,,,,,,
182.15,0.00267,-103.0,,,,,,,
182.21,0.00262,-105.7,,,,,,,
182.26,0.00257,-107.4,,,,,,,
182.3,0.00253,-108.7,,,,,,,
182.31,0.00252,-109.4,,,,,,,
182.36,0.00247,-111.3,,,,,,,
182.4,0.00242,-113.1,,,,,,,
182.46,0.00237,-114.9,,,,,,,
182.51,0.00232,-115.9,,,,,,,
182.55,0.00227,-117.4,,,,,,,
182.6,0.00222,-118.6,,,,,,,
182.65,0.00217,-119.6,,,,,,,
182.7,0.00211,-119.8,,,,,,,
182.75,0.00206,-120.6,,,,,,,
182.8,0.00201,-121.4,,,,,,,
182.8,0.00201,-121.9,,,,,,,
182.86,0.00196,-122.8,,,,,,,
182.91,0.00191,-122.8,,,,,,,
182.95,0.00186,-123.2,,,,,,,
183.0,0.00181,-123.7,,,,,,,
183.05,0.00176,-124.4,,,,,,,
183.1,0.00171,-124.4,,,,,,,
183.15,0.00166,-124.7,,,,,,,
183.2,0.00161,-124.8,,,,,,,
183.26,0.00156,-125.3,,,,,,,
183.3,0.00151,-124.8,,,,,,,
183.31,0.00151,-125.1,,,,,,,
183.36,0.00146,-125.2,,,,,,,
183.41,0.00141,-125.5,,,,,,,
183.46,0.00135,-126.2,,,,,,,
183.51,0.0013,-126.3,,,,,,,
183.56,0.00125,-126.4,,,,,,,
183.61,0.0012,-126.6,,,,,,,
183.66,0.00115,-127.1,,,,,,,
183.71,0.0011,-126.9,,,,,,,
183.75,0.00105,-126.9,,,,,,,
183.8,0.001,-126.7,,,,,,,
183.81,0.001,-127.2,,,,,,,
183.86,0.00095,-126.9,,,,,,,
183.9,0.0009,-127.1,,,,,,,
183.96,0.00085,-126.7,,,,,,,
184.01,0.0008,-126.6,,,,,,,
184.06,0.00075,-126.7,,,,,,,
184.1,0.0007,-126.7,,,,,,,
184.16,0.00065,-126.5,,,,,,,
184.21,0.0006,-126.3,,,,,,,
184.26,0.00055,-126.3,,,,,,,
184.3,0.00051,-125.6,,,,,,,
184.31,0.0005,-125.9,,,,,,,
184.36,0.00045,-126.0,,,,,,,
184.41,0.00039,-126.2,,,,,,,
184.47,0.00034,-126.1,,,,,,,
184.51,0.00029,-126.7,,,,,,,
184.56,0.00024,-126.5,,,,,,,
184.6,0.00019,-126.8,,,,,,,
184.66,0.00014,-127.0,,,,,,,
184.71,9e-05,-126.7,,,,,,,
184.77,4e-05,-126.8,,,,,,,
184.8,1e-05,-126.5,,,,,,,
184.82,-1e-05,-126.7,,,,,,,
184.87,-6e-05,-127.6,,,,,,,
184.92,-0.00011,-127.2,,,,,,,
184.97,-0.00016,-127.6,,,,,,,
185.02,-0.00021,-128.2,,,,,,,
185.07,-0.00027,-128.4,,,,,,,
185.13,-0.00032,-128.5,,,,,,,
185.18,-0.00037,-128.8,,,,,,,
185.23,-0.00042,-128.9,,,,,,,
185.28,-0.00047,-128.6,,,,,,,
185.3,-0.00048,-128.7,,,,,,,
185.32,-0.00052,-128.9,,,,,,,
185.37,-0.00057,-129.3,,,,,,,
185.42,-0.00062,-130.0,,,,,,,
185.47,-0.00067,-129.6,,,,,,,
185.52,-0.00072,-130.1,,,,,,,
185.58,-0.00078,-129.9,,,,,,,
185.63,-0.00083,-130.5,,,,,,,
185.68,-0.00088,-130.2,,,,,,,
185.73,-0.00093,-130.1,,,,,,,
185.77,-0.00098,-130.3,,,,,,,
185.8,-0.00101,-130.0,,,,,,,
185.82,-0.00103,-129.9,,,,,,,
185.88,-0.00108,-130.0,,,,,,,
185.93,-0.00113,-129.5,,,,,,,
185.98,-0.00118,-129.3,,,,,,,
186.04,-0.00123,-129.7,,,,,,,
186.09,-0.00128,-129.7,,,,,,,
186.14,-0.00134,-130.2,,,,,,,
186.19,-0.00139,-129.8,,,,,,,
186.24,-0.00144,-130.1,,,,,,,
186.29,-0.00149,-130.2,,,,,,,
186.3,-0.0015,-129.9,,,,,,,
186.34,-0.00154,-130.2,,,,,,,
186.39,-0.00159,-130.2,,,,,,,
186.44,-0.00164,-130.2,,,,,,,
186.49,-0.00169,-130.4,,,,,,,
186.55,-0.00174,-130.4,,,,,,,
186.59,-0.00179,-131.0,,,,,,,
186.64,-0.00184,-131.1,,,,,,,
186.69,-0.00189,-131.0,,,,,,,
186.74,-0.00194,-131.0,,,,,,,
186.8,-0.00199,-131.5,,,,,,,
186.8,-0.002,-131.0,,,,,,,
186.85,-0.00204,-131.6,,,,,,,
186.9,-0.00209,-131.9,,,,,,,
186.95,-0.00214,-132.4,,,,,,,
187.0,-0.0022,-132.8,,,,,,,
187.05,-0.00225,-133.3,,,,,,,
187.09,-0.0023,-133.7,,,,,,,
187.14,-0.00235,-133.7,,,,,,,
187.19,-0.0024,-133.5,,,,,,,
187.24,-0.00245,-133.6,,,,,,,
187.29,-0.0025,-133.4,,,,,,,
187.3,-0.00251,-133.0,,,,,,,
187.34,-0.00255,-133.3,,,,,,,
187.39,-0.0026,-133.6,,,,,,,
187.45,-0.00265,-133.2,,,,,,,
187.5,-0.0027,-133.3,,,,,,,
187.55,-0.00275,-132.8,,,,,,,
187.6,-0.0028,-132.9,,,,,,,
187.65,-0.00285,-133.6,,,,,,,
187.7,-0.0029,-133.6,,,,,,,
187.75,-0.00295,-133.4,,,,,,,
187.8,-0.003,-133.5,,,,,,,
187.8,-0.003,-133.6,,,,,,,
187.85,-0.00306,-133.9,,,,,,,
187.9,-0.00311,-134.0,,,,,,,
187.95,-0.00316,-134.1,,,,,,,
188.0,-0.00321,-134.3,,,,,,,
188.05,-0.00326,-134.4,,,,,,,
188.1,-0.00331,-133.8,,,,,,,
188.15,-0.00336,-133.9,,,,,,,
188.2,-0.00341,-133.7,,,,,,,
188.25,-0.00346,-134.2,,,,,,,
188.3,-0.00351,-134.0,,,,,,,
188.3,-0.00351,-134.1,,,,,,,
188.36,-0.00356,-134.0,,,,,,,
188.41,-0.00361,-134.2,,,,,,,
188.46,-0.00366,-134.3,,,,,,,
188.51,-0.00371,-134.5,,,,,,,
188.56,-0.00376,-134.7,,,,,,,
188.61,-0.00381,-134.8,,,,,,,
188.66,-0.00386,-135.1,,,,,,,
188.71,-0.00391,-135.9,,,,,,,
188.76,-0.00397,-135.9,,,,,,,
188.8,-0.00401,-135.8,,,,,,,
188.81,-0.00402,-136.0,,,,,,,
188.86,-0.00407,-136.2,,,,,,,
188.9,-0.00412,-136.3,,,,,,,
188.95,-0.00417,-135.8,,,,,,,
189.01,-0.00422,-136.0,,,,,,,
189.05,-0.00427,-135.7,,,,,,,
189.11,-0.00432,-135.1,,,,,,,
189.16,-0.00437,-135.7,,,,,,,
189.21,-0.00442,-135.2,,,,,,,
189.27,-0.00447,-135.6,,,,,,,
189.3,-0.00452,-135.3,,,,,,,
189.31,-0.00452,-135.4,,,,,,,
189.37,-0.00457,-135.7,,,,,,,
189.42,-0.00462,-135.4,,,,,,,
189.47,-0.00468,-135.4,,,,,,,
189.52,-0.00473,-135.1,,,,,,,
189.56,-0.00478,-135.9,,,,,,,
189.61,-0.00483,-135.6,,,,,,,
189.68,-0.00488,-135.6,,,,,,,
189.72,-0.00493,-136.4,,,,,,,
189.77,-0.00498,-136.1,,,,,,,
189.8,-0.00501,-135.5,,,,,,,
189.83,-0.00503,-134.6,,,,,,,
189.93,-0.00498,-115.9,,,,,,,
189.97,-0.00493,-106.1,,,,,,,
190.0,-0.00488,-96.5,,,,,,,
190.03,-0.00483,-89.84,,,,,,,
190.06,-0.00478,-81.99,,,,,,,
190.1,-0.00473,-74.86,,,,,,,
190.15,-0.00468,-66.88,,,,,,,
190.2,-0.00462,-60.96,,,,,,,
190.25,-0.00457,-53.91,,,,,,,
190.3,-0.00453,-48.29,,,,,,,
190.31,-0.00452,-47.07,,,,,,,
190.36,-0.00447,-41.32,,,,,,,
190.41,-0.00442,-35.45,,,,,,,
190.47,-0.00437,-29.57,,,,,,,
190.53,-0.00432,-23.55,,,,,,,
190.58,-0.00427,-17.41,,,,,,,
190.63,-0.00422,-12.04,,,,,,,
190.68,-0.00417,-6.0,,,,,,,
190.74,-0.00412,-0.92,,,,,,,
190.79,-0.00407,4.38,,,,,,,
190.8,-0.00405,5.25,,,,,,,
190.84,-0.00402,9.17,,,,,,,
190.89,-0.00397,13.7,,,,,,,
190.95,-0.00392,19.34,,,,,,,
191.0,-0.00386,24.22,,,,,,,
191.06,-0.00381,28.94,,,,,,,
191.11,-0.00376,33.18,,,,,,,
191.2,-0.00371,36.48,,,,,,,
191.3,-0.00366,40.33,,,,,,,
191.3,-0.00366,39.91,,,,,,,
191.37,-0.00361,44.99,,,,,,,
191.41,-0.00356,51.0,,,,,,,
191.44,-0.00351,56.08,,,,,,,
191.47,-0.00346,60.86,,,,,,,
191.51,-0.00341,65.14,,,,,,,
191.56,-0.00336,68.36,,,,,,,
191.62,-0.00331,71.45,,,,,,,
191.69,-0.00326,73.97,,,,,,,
191.75,-0.00321,77.59,,,,,,,
191.8,-0.00317,80.24,,,,,,,
191.82,-0.00316,81.59,,,,,,,
191.87,-0.00311,85.3,,,,,,,
191.91,-0.00306,89.1,,,,,,,
191.95,-0.00301,93.81,,,,,,,
191.99,-0.00296,98.11,,,,,,,
192.02,-0.0029,102.3,,,,,,,
192.06,-0.00285,106.52,,,,,,,
192.09,-0.0028,109.98,,,,,,,
192.13,-0.00275,113.11,,,,,,,
192.16,-0.0027,116.04,,,,,,,
192.2,-0.00265,118.1,,,,,,,
192.25,-0.0026,119.99,,,,,,,
192.29,-0.00255,121.6,,,,,,,
192.3,-0.00254,121.93,,,,,,,
192.34,-0.0025,123.49,,,,,,,
192.39,-0.00245,124.72,,,,,,,
192.43,-0.0024,125.89,,,,,,,
192.49,-0.00235,126.69,,,,,,,
192.53,-0.0023,127.89,,,,,,,
192.58,-0.00225,128.34,,,,,,,
192.63,-0.0022,128.8,,,,,,,
192.68,-0.00215,129.26,,,,,,,
192.73,-0.0021,129.51,,,,,,,
192.78,-0.00205,130.38,,,,,,,
192.8,-0.00202,130.1,,,,,,,
192.83,-0.002,130.7,,,,,,,
192.88,-0.00195,130.68,,,,,,,
192.93,-0.0019,130.98,,,,,,,
192.97,-0.00185,131.14,,,,,,,
193.03,-0.00179,131.21,,,,,,,
193.08,-0.00174,131.25,,,,,,,
193.13,-0.00169,131.64,,,,,,,
193.18,-0.00164,132.01,,,,,,,
193.23,-0.00159,132.22,,,,,,,
193.28,-0.00154,132.5,,,,,,,
193.3,-0.00152,132.49,,,,,,,
193.33,-0.00149,132.97,,,,,,,
193.38,-0.00144,133.01,,,,,,,
193.43,-0.00139,133.06,,,,,,,
193.48,-0.00134,133.44,,,,,,,
193.53,-0.00129,133.94,,,,,,,
193.58,-0.00124,133.85,,,,,,,
193.62,-0.00119,134.06,,,,,,,
193.68,-0.00114,134.02,,,,,,,
193.73,-0.00109,133.37,,,,,,,
193.78,-0.00103,133.62,,,,,,,
193.8,-0.00101,133.63,,,,,,,
193.84,-0.00098,134.17,,,,,,,
193.88,-0.00093,134.2,,,,,,,
193.93,-0.00088,134.45,,,,,,,
193.98,-0.00083,134.57,,,,,,,
194.03,-0.00078,134.45,,,,,,,
194.09,-0.00073,134.57,,,,,,,
194.13,-0.00068,135.06,,,,,,,
194.18,-0.00063,134.46,,,,,,,
194.24,-0.00058,134.7,,,,,,,
194.29,-0.00053,134.9,,,,,,,
194.3,-0.00052,134.54,,,,,,,
194.33,-0.00048,134.51,,,,,,,
194.38,-0.00042,135.24,,,,,,,
194.43,-0.00037,134.97,,,,,,,
194.49,-0.00032,134.71,,,,,,,
194.54,-0.00027,134.75,,,,,,,
194.59,-0.00022,134.7,,,,,,,
194.64,-0.00017,134.81,,,,,,,
194.7,-0.00012,134.69,,,,,,,
374.84,-4e-05,134.56,,,,,,,
374.89,1e-05,134.31,,,,,,,
374.94,6e-05,133.23,,,,,,,
375.0,0.00011,132.71,,,,,,,
375.05,0.00016,132.7,,,,,,,
375.1,0.00021,133.03,,,,,,,
375.15,0.00026,132.91,,,,,,,
375.21,0.00031,133.42,,,,,,,
375.26,0.00036,133.65,,,,,,,
375.3,0.0004,134.23,,,,,,,
375.31,0.00041,134.25,,,,,,,
375.36,0.00046,134.73,,,,,,,
375.41,0.00051,135.05,,,,,,,
375.46,0.00057,135.55,,,,,,,
375.5,0.00062,135.56,,,,,,,
375.55,0.00067,135.83,,,,,,,
375.6,0.00072,135.83,,,,,,,
375.65,0.00077,135.36,,,,,,,
375.71,0.00082,134.74,,,,,,,
375.76,0.00087,134.86,,,,,,,
375.8,0.00091,134.96,,,,,,,
375.81,0.00092,134.83,,,,,,,
375.86,0.00097,134.98,,,,,,,
375.91,0.00102,135.1,,,,,,,
375.96,0.00107,135.28,,,,,,,
376.01,0.00112,135.32,,,,,,,
376.06,0.00117,135.64,,,,,,,
376.11,0.00122,135.59,,,,,,,
376.16,0.00127,135.69,,,,,,,
376.21,0.00132,135.46,,,,,,,
376.26,0.00137,135.74,,,,,,,
376.3,0.00142,135.97,,,,,,,
376.31,0.00142,135.78,,,,,,,
376.36,0.00147,135.85,,,,,,,
376.41,0.00152,136.25,,,,,,,
376.46,0.00158,136.16,,,,,,,
376.51,0.00163,136.01,,,,,,,
376.55,0.00168,136.55,,,,,,,
376.6,0.00173,136.29,,,,,,,
376.66,0.00178,135.72,,,,,,,
376.71,0.00183,135.77,,,,,,,
376.76,0.00188,135.84,,,,,,,
376.8,0.00192,136.1,,,,,,,
376.81,0.00193,135.99,,,,,,,
376.87,0.00198,136.05,,,,,,,
376.92,0.00203,136.39,,,,,,,
376.97,0.00208,136.64,,,,,,,
377.02,0.00213,137.08,,,,,,,
377.06,0.00218,136.96,,,,,,,
377.12,0.00223,137.69,,,,,,,
377.17,0.00228,137.81,,,,,,,
377.21,0.00233,137.65,,,,,,,
377.26,0.00238,138.15,,,,,,,
377.3,0.00242,138.31,,,,,,,
377.31,0.00243,138.11,,,,,,,
377.37,0.00248,138.07,,,,,,,
377.41,0.00254,137.9,,,,,,,
377.47,0.00259,138.52,,,,,,,
377.52,0.00264,138.25,,,,,,,
377.56,0.00269,138.27,,,,,,,
377.62,0.00274,138.19,,,,,,,
377.67,0.00279,138.37,,,,,,,
377.73,0.00284,138.34,,,,,,,
377.77,0.00289,138.63,,,,,,,
377.8,0.00292,138.94,,,,,,,
377.82,0.00294,139.2,,,,,,,
377.87,0.00299,139.12,,,,,,,
377.92,0.00304,138.82,,,,,,,
377.97,0.00309,138.97,,,,,,,
378.01,0.00314,138.92,,,,,,,
378.06,0.00319,138.49,,,,,,,
378.11,0.00324,138.59,,,,,,,
378.17,0.00329,137.95,,,,,,,
378.22,0.00334,137.75,,,,,,,
378.27,0.00339,138.14,,,,,,,
378.3,0.00343,138.39,,,,,,,
378.33,0.00344,137.82,,,,,,,
378.37,0.0035,138.0,,,,,,,
378.42,0.00355,138.29,,,,,,,
378.47,0.0036,138.48,,,,,,,
378.53,0.00365,138.74,,,,,,,
378.59,0.0037,138.43,,,,,,,
378.63,0.00375,138.76,,,,,,,
378.68,0.00381,138.91,,,,,,,
378.73,0.00386,138.78,,,,,,,
378.79,0.00391,138.71,,,,,,,
378.8,0.00393,139.21,,,,,,,
378.83,0.00396,139.23,,,,,,,
378.88,0.00401,139.1,,,,,,,
378.94,0.00406,138.73,,,,,,,
378.98,0.00411,138.95,,,,,,,
379.04,0.00416,139.22,,,,,,,
379.09,0.00421,139.67,,,,,,,
379.14,0.00426,139.32,,,,,,,
379.19,0.00431,139.95,,,,,,,
379.24,0.00436,139.33,,,,,,,
379.29,0.00441,139.84,,,,,,,
379.3,0.00443,140.02,,,,,,,
379.34,0.00446,140.05,,,,,,,
379.39,0.00451,139.61,,,,,,,
379.44,0.00456,139.4,,,,,,,
379.49,0.00461,139.7,,,,,,,
379.54,0.00466,139.61,,,,,,,
379.59,0.00471,140.1,,,,,,,
379.64,0.00476,139.9,,,,,,,
379.69,0.00482,140.21,,,,,,,
379.74,0.00487,139.91,,,,,,,
379.78,0.00492,140.24,,,,,,,
379.8,0.00494,140.2,,,,,,,
379.83,0.00497,139.86,,,,,,,
379.9,0.00502,137.68,,,,,,,
380.02,0.00497,116.88,,,,,,,
380.06,0.00492,107.78,,,,,,,
380.1,0.00487,99.13,,,,,,,
380.13,0.00482,92.44,,,,,,,
380.17,0.00476,85.09,,,,,,,
380.21,0.00471,78.8,,,,,,,
380.26,0.00466,71.79,,,,,,,
380.3,0.00462,66.64,,,,,,,
380.31,0.00461,65.43,,,,,,,
380.36,0.00456,59.65,,,,,,,
380.42,0.00451,53.05,,,,,,,
380.48,0.00446,46.94,,,,,,,
380.53,0.00441,41.14,,,,,,,
380.58,0.00436,35.02,,,,,,,
380.64,0.00431,29.23,,,,,,,
380.69,0.00426,23.54,,,,,,,
380.74,0.00421,17.45,,,,,,,
380.8,0.00416,12.29,,,,,,,
380.8,0.00415,12.2,,,,,,,
380.85,0.00411,7.0,,,,,,,
380.91,0.00405,1.9,,,,,,,
380.96,0.004,-3.34,,,,,,,
381.03,0.00395,-6.13,,,,,,,
381.15,0.0039,-8.86,,,,,,,
381.23,0.00385,-14.21,,,,,,,
381.3,0.0038,-19.21,,,,,,,
381.3,0.0038,-19.19,,,,,,,
381.35,0.00375,-23.98,,,,,,,
381.41,0.0037,-29.97,,,,,,,
381.44,0.00365,-35.22,,,,,,,
381.48,0.00359,-41.09,,,,,,,
381.51,0.00354,-45.08,,,,,,,
381.55,0.00349,-50.0,,,,,,,
381.59,0.00344,-54.74,,,,,,,
381.62,0.00339,-58.27,,,,,,,
381.67,0.00334,-64.24,,,,,,,
381.7,0.00329,-68.46,,,,,,,
381.74,0.00323,-72.41,,,,,,,
381.77,0.00318,-76.62,,,,,,,
381.8,0.00314,-79.08,,,,,,,
381.8,0.00313,-79.31,,,,,,,
381.85,0.00308,-83.44,,,,,,,
381.89,0.00303,-85.63,,,,,,,
381.95,0.00298,-88.69,,,,,,,
381.99,0.00293,-90.65,,,,,,,
382.05,0.00288,-93.13,,,,,,,
382.1,0.00283,-95.12,,,,,,,
382.16,0.00278,-97.85,,,,,,,
382.19,0.00273,-99.45,,,,,,,
382.25,0.00267,-102.3,,,,,,,
382.29,0.00262,-103.7,,,,,,,
382.3,0.00262,-104.1,,,,,,,
382.35,0.00257,-105.9,,,,,,,
382.39,0.00252,-107.4,,,,,,,
382.45,0.00247,-109.4,,,,,,,
382.5,0.00242,-110.6,,,,,,,
382.55,0.00237,-113.0,,,,,,,
382.59,0.00232,-113.6,,,,,,,
382.65,0.00227,-115.4,,,,,,,
382.7,0.00222,-116.7,,,,,,,
382.75,0.00217,-117.7,,,,,,,
382.79,0.00212,-118.2,,,,,,,
382.8,0.00211,-118.6,,,,,,,
382.84,0.00206,-119.1,,,,,,,
382.89,0.00201,-119.9,,,,,,,
382.95,0.00196,-121.1,,,,,,,
383.0,0.00191,-121.5,,,,,,,
383.05,0.00186,-121.7,,,,,,,
383.1,0.00181,-122.5,,,,,,,
383.14,0.00175,-122.4,,,,,,,
383.19,0.0017,-123.0,,,,,,,
383.25,0.00165,-123.6,,,,,,,
383.3,0.0016,-123.4,,,,,,,
383.3,0.0016,-123.5,,,,,,,
383.35,0.00155,-124.0,,,,,,,
383.39,0.0015,-123.7,,,,,,,
383.45,0.00145,-124.3,,,,,,,
383.51,0.0014,-124.4,,,,,,,
383.55,0.00135,-124.5,,,,,,,
383.61,0.00129,-125.1,,,,,,,
383.66,0.00124,-125.7,,,,,,,
383.71,0.00119,-126.0,,,,,,,
383.75,0.00114,-126.2,,,,,,,
383.8,0.00109,-126.1,,,,,,,
383.8,0.00109,-126.2,,,,,,,
383.85,0.00104,-125.9,,,,,,,
383.9,0.00099,-126.2,,,,,,,
383.95,0.00094,-126.3,,,,,,,
384.0,0.00089,-126.1,,,,,,,
384.05,0.00084,-125.7,,,,,,,
384.1,0.00079,-125.7,,,,,,,
384.15,0.00074,-125.7,,,,,,,
384.2,0.00069,-125.7,,,,,,,
384.25,0.00064,-125.7,,,,,,,
384.3,0.00059,-125.3,,,,,,,
384.3,0.00059,-125.6,,,,,,,
384.35,0.00054,-125.5,,,,,,,
384.41,0.00049,-125.3,,,,,,,
384.46,0.00044,-125.1,,,,,,,
384.51,0.00039,-125.6,,,,,,,
384.56,0.00034,-126.1,,,,,,,
384.61,0.00029,-126.2,,,,,,,
384.66,0.00024,-126.3,,,,,,,
384.71,0.00019,-126.4,,,,,,,
384.76,0.00014,-126.8,,,,,,,
384.8,0.0001,-127.0,,,,,,,
384.81,9e-05,-127.5,,,,,,,
384.86,3e-05,-127.3,,,,,,,
384.91,-2e-05,-127.9,,,,,,,
384.96,-7e-05,-127.8,,,,,,,
385.01,-0.00012,-128.0,,,,,,,
385.06,-0.00017,-128.2,,,,,,,
385.11,-0.00022,-128.4,,,,,,,
385.16,-0.00027,-128.2,,,,,,,
385.22,-0.00032,-128.2,,,,,,,
385.27,-0.00037,-128.4,,,,,,,
385.3,-0.00041,-128.5,,,,,,,
385.32,-0.00042,-129.0,,,,,,,
385.37,-0.00047,-129.2,,,,,,,
385.42,-0.00052,-129.2,,,,,,,
385.46,-0.00057,-129.8,,,,,,,
385.51,-0.00062,-129.8,,,,,,,
385.57,-0.00068,-129.6,,,,,,,
385.62,-0.00073,-129.4,,,,,,,
385.67,-0.00078,-129.6,,,,,,,
385.73,-0.00083,-129.8,,,,,,,
385.77,-0.00088,-130.2,,,,,,,
385.8,-0.0009,-130.3,,,,,,,
385.82,-0.00093,-130.5,,,,,,,
385.87,-0.00098,-130.7,,,,,,,
385.92,-0.00103,-130.2,,,,,,,
385.97,-0.00108,-130.4,,,,,,,
386.01,-0.00113,-130.0,,,,,,,
386.06,-0.00118,-129.7,,,,,,,
386.12,-0.00123,-129.6,,,,,,,
386.17,-0.00128,-129.2,,,,,,,
386.22,-0.00133,-129.4,,,,,,,
386.28,-0.00139,-129.3,,,,,,,
386.3,-0.00141,-129.2,,,,,,,
386.32,-0.00144,-129.4,,,,,,,
386.37,-0.00149,-129.6,,,,,,,
386.43,-0.00154,-129.4,,,,,,,
386.49,-0.00159,-129.7,,,,,,,
386.53,-0.00164,-130.3,,,,,,,
386.59,-0.00169,-130.2,,,,,,,
386.64,-0.00174,-130.8,,,,,,,
386.69,-0.00179,-130.3,,,,,,,
386.74,-0.00184,-130.9,,,,,,,
386.79,-0.0019,-131.3,,,,,,,
386.8,-0.00191,-131.3,,,,,,,
386.84,-0.00195,-131.6,,,,,,,
386.89,-0.002,-131.7,,,,,,,
386.94,-0.00205,-132.1,,,,,,,
386.99,-0.0021,-132.5,,,,,,,
387.04,-0.00215,-132.3,,,,,,,
387.08,-0.0022,-132.3,,,,,,,
387.13,-0.00225,-132.4,,,,,,,
387.19,-0.0023,-132.1,,,,,,,
387.23,-0.00235,-132.1,,,,,,,
387.29,-0.0024,-131.8,,,,,,,
387.3,-0.00241,-132.3,,,,,,,
387.34,-0.00245,-132.3,,,,,,,
387.39,-0.0025,-132.1,,,,,,,
387.44,-0.00255,-132.3,,,,,,,
387.49,-0.0026,-132.7,,,,,,,
387.54,-0.00265,-133.1,,,,,,,
387.59,-0.0027,-133.4,,,,,,,
387.64,-0.00275,-133.3,,,,,,,
387.69,-0.00281,-133.4,,,,,,,
387.74,-0.00286,-133.8,,,,,,,
387.79,-0.00291,-133.8,,,,,,,
387.8,-0.00292,-133.9,,,,,,,
387.84,-0.00296,-133.7,,,,,,,
387.89,-0.00301,-133.5,,,,,,,
387.94,-0.00306,-133.5,,,,,,,
387.99,-0.00311,-133.2,,,,,,,
388.05,-0.00316,-133.2,,,,,,,
388.1,-0.00321,-133.5,,,,,,,
388.15,-0.00326,-133.4,,,,,,,
388.2,-0.00331,-134.1,,,,,,,
388.25,-0.00336,-133.8,,,,,,,
388.3,-0.00341,-134.4,,,,,,,
388.3,-0.00342,-134.1,,,,,,,
388.35,-0.00346,-134.0,,,,,,,
388.4,-0.00351,-134.0,,,,,,,
388.44,-0.00356,-134.1,,,,,,,
388.5,-0.00362,-134.1,,,,,,,
388.55,-0.00367,-133.8,,,,,,,
388.61,-0.00372,-134.1,,,,,,,
388.65,-0.00377,-134.6,,,,,,,
388.7,-0.00382,-134.2,,,,,,,
388.76,-0.00387,-135.0,,,,,,,
388.8,-0.00392,-135.1,,,,,,,
388.8,-0.00392,-134.7,,,,,,,
388.85,-0.00397,-135.3,,,,,,,
388.91,-0.00402,-135.2,,,,,,,
388.96,-0.00407,-135.2,,,,,,,
389.0,-0.00412,-135.5,,,,,,,
389.05,-0.00417,-135.2,,,,,,,
389.1,-0.00422,-135.0,,,,,,,
389.15,-0.00428,-135.3,,,,,,,
389.2,-0.00433,-134.9,,,,,,,
389.25,-0.00438,-134.9,,,,,,,
389.3,-0.00442,-134.9,,,,,,,
389.31,-0.00443,-134.8,,,,,,,
389.36,-0.00448,-134.6,,,,,,,
389.41,-0.00453,-134.6,,,,,,,
389.46,-0.00458,-134.4,,,,,,,
389.51,-0.00463,-134.7,,,,,,,
389.56,-0.00468,-134.9,,,,,,,
389.62,-0.00473,-134.9,,,,,,,
389.66,-0.00478,-135.1,,,,,,,
389.72,-0.00483,-135.4,,,,,,,
389.77,-0.00488,-135.7,,,,,,,
389.8,-0.00492,-136.2,,,,,,,
389.82,-0.00493,-136.4,,,,,,,
389.87,-0.00498,-136.4,,,,,,,
390.05,-0.00493,-107.7,,,,,,,
390.08,-0.00488,-100.1,,,,,,,
390.11,-0.00483,-91.93,,,,,,,
390.15,-0.00478,-84.19,,,,,,,
390.19,-0.00473,-76.88,,,,,,,
390.23,-0.00468,-70.55,,,,,,,
390.28,-0.00463,-63.8,,,,,,,
390.3,-0.00461,-61.11,,,,,,,
390.33,-0.00458,-56.99,,,,,,,
390.39,-0.00453,-50.53,,,,,,,
390.45,-0.00448,-43.51,,,,,,,
390.5,-0.00443,-37.26,,,,,,,
390.56,-0.00437,-31.68,,,,,,,
390.61,-0.00432,-25.4,,,,,,,
390.66,-0.00427,-19.51,,,,,,,
390.71,-0.00422,-14.06,,,,,,,
390.76,-0.00417,-9.03,,,,,,,
390.8,-0.00413,-4.89,,,,,,,
390.82,-0.00412,-2.93,,,,,,,
390.87,-0.00407,2.03,,,,,,,
390.92,-0.00402,7.33,,,,,,,
390.98,-0.00397,12.54,,,,,,,
391.03,-0.00392,18.16,,,,,,,
391.09,-0.00387,23.15,,,,,,,
391.14,-0.00382,27.58,,,,,,,
391.19,-0.00377,32.46,,,,,,,
391.26,-0.00372,35.97,,,,,,,
391.3,-0.0037,36.59,,,,,,,
391.36,-0.00367,38.37,,,,,,,
391.45,-0.00362,42.6,,,,,,,
391.5,-0.00357,48.75,,,,,,,
391.53,-0.00352,54.07,,,,,,,
391.56,-0.00347,59.4,,,,,,,
391.6,-0.00342,63.79,,,,,,,
391.65,-0.00337,68.57,,,,,,,
391.71,-0.00332,71.96,,,,,,,
391.78,-0.00327,75.34,,,,,,,
391.8,-0.00325,76.29,,,,,,,
391.84,-0.00321,79.07,,,,,,,
391.9,-0.00316,82.61,,,,,,,
391.95,-0.00311,86.83,,,,,,,
392.0,-0.00306,90.35,,,,,,,
392.04,-0.00301,95.35,,,,,,,
392.08,-0.00296,100.05,,,,,,,
392.11,-0.00291,104.34,,,,,,,
392.14,-0.00286,107.88,,,,,,,
392.18,-0.00281,111.57,,,,,,,
392.21,-0.00276,114.95,,,,,,,
392.25,-0.00271,117.35,,,,,,,
392.29,-0.00265,119.6,,,,,,,
392.3,-0.00264,120.13,,,,,,,
392.33,-0.0026,121.26,,,,,,,
392.37,-0.00255,123.25,,,,,,,
392.42,-0.0025,124.27,,,,,,,
392.47,-0.00245,125.52,,,,,,,
392.52,-0.0024,126.29,,,,,,,
392.57,-0.00235,126.91,,,,,,,
392.62,-0.0023,127.62,,,,,,,
392.67,-0.00225,128.67,,,,,,,
392.72,-0.0022,129.61,,,,,,,
392.77,-0.00215,129.99,,,,,,,
392.8,-0.00212,130.19,,,,,,,
392.82,-0.0021,131.13,,,,,,,
392.87,-0.00205,131.56,,,,,,,
392.92,-0.002,131.78,,,,,,,
392.96,-0.00195,131.86,,,,,,,
393.01,-0.0019,132.39,,,,,,,
393.06,-0.00185,132.42,,,,,,,
393.11,-0.00179,132.9,,,,,,,
393.16,-0.00174,132.76,,,,,,,
393.22,-0.00169,133.09,,,,,,,
393.27,-0.00164,132.66,,,,,,,
393.3,-0.00161,132.8,,,,,,,
393.32,-0.00159,132.89,,,,,,,
393.37,-0.00154,133.4,,,,,,,
393.42,-0.00149,133.52,,,,,,,
393.46,-0.00144,134.0,,,,,,,
393.52,-0.00139,133.58,,,,,,,
393.56,-0.00134,133.51,,,,,,,
393.61,-0.00129,133.7,,,,,,,
393.67,-0.00124,133.59,,,,,,,
393.71,-0.00119,133.56,,,,,,,
393.77,-0.00114,133.49,,,,,,,
393.8,-0.0011,132.88,,,,,,,
393.82,-0.00109,132.85,,,,,,,
393.87,-0.00103,132.69,,,,,,,
393.92,-0.00098,132.73,,,,,,,
393.97,-0.00093,133.44,,,,,,,
394.02,-0.00088,133.34,,,,,,,
394.07,-0.00083,133.27,,,,,,,
394.12,-0.00078,132.81,,,,,,,
394.17,-0.00073,133.04,,,,,,,
394.22,-0.00068,132.99,,,,,,,
394.27,-0.00063,133.58,,,,,,,
394.3,-0.0006,133.12,,,,,,,
394.32,-0.00058,133.47,,,,,,,
394.37,-0.00053,133.25,,,,,,,
394.42,-0.00048,133.6,,,,,,,
394.48,-0.00043,134.04,,,,,,,
394.53,-0.00038,133.68,,,,,,,
394.58,-0.00033,133.97,,,,,,,
394.63,-0.00028,134.32,,,,,,,
394.68,-0.00023,134.87,,,,,,,
394.72,-0.00018,134.97,,,,,,,
394.77,-0.00012,135.14,,,,,,,
394.8,-9e-05,134.94,,,,,,,
394.82,-7e-05,135.6,,,,,,,
975.11,-5e-05,133.53,,,,,,,
975.16,0.0,133.25,,,,,,,
975.21,5e-05,133.69,,,,,,,
975.26,0.0001,133.76,,,,,,,
975.3,0.00014,133.4,,,,,,,
975.32,0.00015,134.14,,,,,,,
975.36,0.0002,133.65,,,,,,,
975.42,0.00025,134.03,,,,,,,
975.47,0.00031,134.48,,,,,,,
975.52,0.00036,134.8,,,,,,,
975.56,0.00041,135.55,,,,,,,
975.61,0.00046,135.74,,,,,,,
975.66,0.00051,135.66,,,,,,,
975.71,0.00056,135.75,,,,,,,
975.76,0.00061,135.36,,,,,,,
975.8,0.00065,135.15,,,,,,,
975.82,0.00066,135.26,,,,,,,
975.87,0.00071,135.05,,,,,,,
975.92,0.00076,135.17,,,,,,,
975.97,0.00081,135.5,,,,,,,
976.02,0.00086,135.53,,,,,,,
976.07,0.00091,135.78,,,,,,,
976.12,0.00096,136.49,,,,,,,
976.17,0.00101,136.44,,,,,,,
976.22,0.00106,136.53,,,,,,,
976.27,0.00112,136.91,,,,,,,
976.3,0.00115,136.34,,,,,,,
976.32,0.00117,136.5,,,,,,,
976.37,0.00122,136.15,,,,,,,
976.42,0.00127,136.19,,,,,,,
976.47,0.00132,136.33,,,,,,,
976.52,0.00137,135.64,,,,,,,
976.57,0.00142,136.0,,,,,,,
976.62,0.00147,135.44,,,,,,,
976.67,0.00152,135.27,,,,,,,
976.72,0.00157,135.11,,,,,,,
976.77,0.00162,135.13,,,,,,,
976.8,0.00165,134.75,,,,,,,
976.82,0.00167,134.93,,,,,,,
976.88,0.00172,134.91,,,,,,,
976.93,0.00177,135.09,,,,,,,
976.98,0.00182,135.99,,,,,,,
977.03,0.00187,136.28,,,,,,,
977.08,0.00192,136.74,,,,,,,
977.13,0.00197,136.57,,,,,,,
977.17,0.00203,137.28,,,,,,,
977.22,0.00208,137.08,,,,,,,
977.27,0.00213,137.29,,,,,,,
977.3,0.00216,136.61,,,,,,,
977.32,0.00218,136.75,,,,,,,
977.37,0.00223,136.68,,,,,,,
977.42,0.00228,136.35,,,,,,,
977.48,0.00233,136.17,,,,,,,
977.53,0.00238,135.92,,,,,,,
977.58,0.00243,136.52,,,,,,,
977.63,0.00248,136.5,,,,,,,
977.68,0.00253,136.65,,,,,,,
977.73,0.00258,136.65,,,,,,,
977.77,0.00263,136.52,,,,,,,
977.8,0.00265,136.16,,,,,,,
977.83,0.00268,135.98,,,,,,,
977.88,0.00273,135.89,,,,,,,
977.93,0.00278,136.28,,,,,,,
977.98,0.00283,136.34,,,,,,,
978.03,0.00288,135.99,,,,,,,
978.08,0.00293,136.16,,,,,,,
978.14,0.00299,136.65,,,,,,,
978.19,0.00304,136.71,,,,,,,
978.23,0.00309,137.42,,,,,,,
978.28,0.00314,136.8,,,,,,,
978.3,0.00315,136.94,,,,,,,
978.33,0.00319,137.71,,,,,,,
978.38,0.00324,137.35,,,,,,,
978.44,0.00329,137.39,,,,,,,
978.48,0.00334,137.72,,,,,,,
978.53,0.00339,137.62,,,,,,,
978.58,0.00344,137.76,,,,,,,
978.63,0.00349,137.09,,,,,,,
978.68,0.00354,137.12,,,,,,,
978.74,0.00359,137.21,,,,,,,
978.78,0.00364,137.58,,,,,,,
978.8,0.00366,136.93,,,,,,,
978.83,0.00369,137.17,,,,,,,
978.89,0.00375,136.79,,,,,,,
978.94,0.0038,136.89,,,,,,,
978.99,0.00385,136.67,,,,,,,
979.04,0.0039,137.17,,,,,,,
979.09,0.00395,137.41,,,,,,,
979.14,0.004,137.27,,,,,,,
979.19,0.00405,137.71,,,,,,,
979.24,0.0041,137.74,,,,,,,
979.29,0.00415,138.34,,,,,,,
979.3,0.00416,137.9,,,,,,,
979.34,0.0042,138.56,,,,,,,
979.39,0.00425,138.34,,,,,,,
979.44,0.0043,138.74,,,,,,,
979.49,0.00435,138.96,,,,,,,
979.54,0.0044,138.68,,,,,,,
979.59,0.00445,138.23,,,,,,,
979.64,0.0045,137.95,,,,,,,
979.69,0.00455,138.09,,,,,,,
979.74,0.0046,137.96,,,,,,,
979.79,0.00465,137.96,,,,,,,
979.8,0.00467,137.7,,,,,,,
979.84,0.0047,137.83,,,,,,,
979.89,0.00475,137.45,,,,,,,
979.94,0.00481,137.26,,,,,,,
979.99,0.00486,136.77,,,,,,,
980.05,0.00491,137.13,,,,,,,
980.1,0.00496,137.23,,,,,,,
980.16,0.00501,136.11,,,,,,,
980.29,0.00496,115.65,,,,,,,
980.3,0.00495,113.79,,,,,,,
980.33,0.00491,108.22,,,,,,,
980.36,0.00485,100.08,,,,,,,
980.4,0.0048,93.32,,,,,,,
980.44,0.00475,86.12,,,,,,,
980.48,0.0047,79.8,,,,,,,
980.52,0.00465,74.18,,,,,,,
980.58,0.0046,67.45,,,,,,,
980.64,0.00455,60.92,,,,,,,
980.7,0.0045,54.33,,,,,,,
980.76,0.00445,47.74,,,,,,,
980.8,0.00441,42.38,,,,,,,
980.81,0.0044,41.86,,,,,,,
980.86,0.00435,35.64,,,,,,,
980.91,0.0043,30.31,,,,,,,
980.96,0.00425,24.45,,,,,,,
981.01,0.0042,20.27,,,,,,,
981.06,0.00415,14.47,,,,,,,
981.11,0.0041,10.19,,,,,,,
981.17,0.00405,5.12,,,,,,,
981.22,0.004,0.13,,,,,,,
981.28,0.00395,-3.8,,,,,,,
981.3,0.00393,-5.34,,,,,,,
981.38,0.0039,-5.87,,,,,,,
981.49,0.00385,-10.54,,,,,,,
981.56,0.00379,-15.43,,,,,,,
981.61,0.00374,-19.99,,,,,,,
981.68,0.00369,-26.26,,,,,,,
981.72,0.00364,-31.72,,,,,,,
981.75,0.00359,-35.81,,,,,,,
981.79,0.00354,-41.61,,,,,,,
981.8,0.00351,-43.37,,,,,,,
981.81,0.00349,-44.35,,,,,,,
981.86,0.00344,-48.63,,,,,,,
981.91,0.00339,-53.97,,,,,,,
981.95,0.00334,-58.27,,,,,,,
981.99,0.00329,-63.41,,,,,,,
982.01,0.00324,-67.07,,,,,,,
982.05,0.00318,-71.63,,,,,,,
982.09,0.00313,-75.91,,,,,,,
982.14,0.00308,-79.71,,,,,,,
982.18,0.00303,-82.78,,,,,,,
982.22,0.00298,-85.86,,,,,,,
982.28,0.00292,-88.93,,,,,,,
982.3,0.0029,-90.53,,,,,,,
982.33,0.00287,-91.96,,,,,,,
982.38,0.00282,-94.69,,,,,,,
982.42,0.00277,-96.84,,,,,,,
982.48,0.00272,-99.83,,,,,,,
982.52,0.00267,-101.0,,,,,,,
982.57,0.00262,-103.5,,,,,,,
982.62,0.00257,-105.6,,,,,,,
982.67,0.00252,-107.5,,,,,,,
982.72,0.00247,-109.2,,,,,,,
982.77,0.00242,-110.1,,,,,,,
982.8,0.00238,-111.7,,,,,,,
982.82,0.00237,-111.8,,,,,,,
982.86,0.00232,-112.8,,,,,,,
982.91,0.00227,-114.2,,,,,,,
982.96,0.00222,-114.6,,,,,,,
983.0,0.00217,-115.5,,,,,,,
983.06,0.00211,-115.9,,,,,,,
983.11,0.00206,-117.0,,,,,,,
983.16,0.00201,-117.7,,,,,,,
983.22,0.00196,-119.0,,,,,,,
983.26,0.00191,-119.3,,,,,,,
983.3,0.00187,-120.3,,,,,,,
983.31,0.00186,-120.0,,,,,,,
983.36,0.00181,-121.0,,,,,,,
983.41,0.00176,-121.5,,,,,,,
983.46,0.00171,-121.4,,,,,,,
983.51,0.00166,-122.0,,,,,,,
983.56,0.00161,-122.0,,,,,,,
983.6,0.00156,-122.3,,,,,,,
983.66,0.00151,-122.5,,,,,,,
983.7,0.00146,-122.8,,,,,,,
983.76,0.00141,-122.9,,,,,,,
983.8,0.00137,-123.1,,,,,,,
983.81,0.00136,-123.0,,,,,,,
983.86,0.0013,-123.0,,,,,,,
983.91,0.00125,-123.5,,,,,,,
983.97,0.0012,-123.6,,,,,,,
984.02,0.00115,-124.3,,,,,,,
984.07,0.0011,-124.6,,,,,,,
984.11,0.00105,-125.3,,,,,,,
984.16,0.001,-125.4,,,,,,,
984.21,0.00095,-125.4,,,,,,,
984.26,0.0009,-125.6,,,,,,,
984.3,0.00086,-125.6,,,,,,,
984.31,0.00085,-125.5,,,,,,,
984.37,0.0008,-125.5,,,,,,,
984.42,0.00075,-125.2,,,,,,,
984.47,0.0007,-125.4,,,,,,,
984.52,0.00065,-125.9,,,,,,,
984.57,0.0006,-126.1,,,,,,,
984.62,0.00054,-126.3,,,,,,,
984.67,0.00049,-126.5,,,,,,,
984.72,0.00044,-126.8,,,,,,,
984.77,0.00039,-126.9,,,,,,,
984.8,0.00037,-126.8,,,,,,,
984.83,0.00034,-126.9,,,,,,,
984.87,0.00029,-126.8,,,,,,,
984.92,0.00024,-127.3,,,,,,,
984.97,0.00019,-127.4,,,,,,,
985.02,0.00014,-127.2,,,,,,,
985.07,9e-05,-127.5,,,,,,,
985.12,4e-05,-127.3,,,,,,,
985.17,-1e-05,-127.1,,,,,,,
985.22,-7e-05,-126.6,,,,,,,
985.27,-0.00012,-126.7,,,,,,,
985.3,-0.00015,-126.6,,,,,,,
985.32,-0.00017,-126.3,,,,,,,
985.38,-0.00022,-126.4,,,,,,,
985.42,-0.00027,-126.2,,,,,,,
985.48,-0.00032,-126.2,,,,,,,
985.54,-0.00037,-126.4,,,,,,,
985.57,-0.00042,-126.8,,,,,,,
985.63,-0.00047,-126.6,,,,,,,
985.69,-0.00053,-127.5,,,,,,,
985.73,-0.00058,-127.1,,,,,,,
985.78,-0.00063,-127.8,,,,,,,
985.8,-0.00065,-127.7,,,,,,,
985.83,-0.00068,-127.3,,,,,,,
985.88,-0.00073,-127.8,,,,,,,
985.93,-0.00078,-127.4,,,,,,,
985.99,-0.00083,-127.9,,,,,,,
986.04,-0.00088,-127.8,,,,,,,
986.09,-0.00093,-128.3,,,,,,,
986.14,-0.00098,-128.6,,,,,,,
986.19,-0.00103,-129.2,,,,,,,
986.24,-0.00108,-128.9,,,,,,,
986.28,-0.00113,-128.8,,,,,,,
986.3,-0.00115,-129.3,,,,,,,
986.33,-0.00118,-129.4,,,,,,,
986.39,-0.00123,-129.0,,,,,,,
986.44,-0.00128,-129.1,,,,,,,
986.49,-0.00133,-129.1,,,,,,,
986.54,-0.00138,-129.3,,,,,,,
986.59,-0.00144,-129.3,,,,,,,
986.64,-0.00149,-129.5,,,,,,,
986.69,-0.00154,-129.8,,,,,,,
986.74,-0.00159,-129.7,,,,,,,
986.79,-0.00164,-129.9,,,,,,,
986.8,-0.00165,-130.1,,,,,,,
986.84,-0.00169,-129.7,,,,,,,
986.89,-0.00174,-130.4,,,,,,,
986.94,-0.00179,-130.6,,,,,,,
986.99,-0.00184,-130.4,,,,,,,
987.04,-0.00189,-130.3,,,,,,,
987.09,-0.00194,-130.7,,,,,,,
987.14,-0.00199,-130.2,,,,,,,
987.19,-0.00204,-130.3,,,,,,,
987.24,-0.00209,-130.5,,,,,,,
987.29,-0.00214,-130.0,,,,,,,
987.3,-0.00215,-130.3,,,,,,,
987.34,-0.00219,-130.0,,,,,,,
987.4,-0.00224,-129.8,,,,,,,
987.45,-0.00229,-130.7,,,,,,,
987.5,-0.00235,-130.6,,,,,,,
987.55,-0.0024,-130.9,,,,,,,
987.6,-0.00245,-130.9,,,,,,,
987.65,-0.0025,-131.8,,,,,,,
987.7,-0.00255,-132.1,,,,,,,
987.75,-0.0026,-132.2,,,,,,,
987.8,-0.00265,-132.3,,,,,,,
987.8,-0.00265,-132.8,,,,,,,
987.85,-0.0027,-132.8,,,,,,,
987.9,-0.00275,-132.7,,,,,,,
987.95,-0.0028,-132.3,,,,,,,
988.0,-0.00285,-132.9,,,,,,,
988.05,-0.0029,-132.6,,,,,,,
988.1,-0.00295,-132.0,,,,,,,
988.15,-0.003,-132.2,,,,,,,
988.2,-0.00305,-131.9,,,,,,,
988.25,-0.0031,-132.2,,,,,,,
988.3,-0.00315,-132.4,,,,,,,
988.31,-0.00315,-132.1,,,,,,,
988.35,-0.0032,-132.5,,,,,,,
988.4,-0.00326,-132.5,,,,,,,
988.46,-0.00331,-132.4,,,,,,,
988.51,-0.00336,-132.9,,,,,,,
988.55,-0.00341,-132.6,,,,,,,
988.61,-0.00346,-132.9,,,,,,,
988.66,-0.00351,-132.6,,,,,,,
988.71,-0.00356,-132.6,,,,,,,
988.76,-0.00361,-132.5,,,,,,,
988.8,-0.00365,-133.2,,,,,,,
988.81,-0.00366,-132.8,,,,,,,
988.86,-0.00371,-133.2,,,,,,,
988.91,-0.00376,-133.2,,,,,,,
988.96,-0.00381,-133.3,,,,,,,
989.01,-0.00386,-133.1,,,,,,,
989.06,-0.00392,-132.8,,,,,,,
989.11,-0.00397,-133.3,,,,,,,
989.17,-0.00402,-133.8,,,,,,,
989.21,-0.00407,-133.7,,,,,,,
989.26,-0.00412,-134.0,,,,,,,
989.3,-0.00416,-133.8,,,,,,,
989.32,-0.00417,-133.5,,,,,,,
989.36,-0.00422,-133.5,,,,,,,
989.42,-0.00427,-132.9,,,,,,,
989.47,-0.00432,-133.6,,,,,,,
989.52,-0.00437,-133.5,,,,,,,
989.57,-0.00442,-133.8,,,,,,,
989.62,-0.00447,-133.8,,,,,,,
989.67,-0.00452,-134.1,,,,,,,
989.72,-0.00457,-134.5,,,,,,,
989.77,-0.00463,-134.6,,,,,,,
989.8,-0.00466,-134.9,,,,,,,
989.82,-0.00468,-134.8,,,,,,,
989.87,-0.00473,-134.9,,,,,,,
989.93,-0.00478,-135.2,,,,,,,
989.98,-0.00483,-135.2,,,,,,,
990.03,-0.00488,-135.9,,,,,,,
990.07,-0.00493,-135.9,,,,,,,
990.13,-0.00498,-136.4,,,,,,,
990.2,-0.00503,-132.1,,,,,,,
990.28,-0.00498,-115.3,,,,,,,
990.3,-0.00495,-110.2,,,,,,,
990.32,-0.00493,-105.9,,,,,,,
990.35,-0.00488,-96.72,,,,,,,
990.39,-0.00483,-89.0,,,,,,,
990.42,-0.00478,-81.31,,,,,,,
990.46,-0.00473,-74.15,,,,,,,
990.5,-0.00467,-67.35,,,,,,,
990.56,-0.00462,-60.18,,,,,,,
990.61,-0.00457,-54.02,,,,,,,
990.66,-0.00452,-47.3,,,,,,,
990.71,-0.00447,-41.57,,,,,,,
990.77,-0.00442,-35.54,,,,,,,
990.8,-0.00439,-31.99,,,,,,,
990.82,-0.00437,-29.25,,,,,,,
990.88,-0.00432,-23.91,,,,,,,
990.93,-0.00427,-17.94,,,,,,,
990.98,-0.00422,-12.36,,,,,,,
991.03,-0.00417,-7.55,,,,,,,
991.09,-0.00412,-1.67,,,,,,,
991.14,-0.00407,2.94,,,,,,,
991.19,-0.00402,8.44,,,,,,,
991.25,-0.00397,13.29,,,,,,,
991.3,-0.00392,17.86,,,,,,,
991.3,-0.00392,18.11,,,,,,,
991.35,-0.00387,23.15,,,,,,,
991.41,-0.00382,28.22,,,,,,,
991.46,-0.00377,33.04,,,,,,,
991.54,-0.00372,36.5,,,,,,,
991.65,-0.00366,38.99,,,,,,,
991.72,-0.00361,44.49,,,,,,,
991.76,-0.00356,51.68,,,,,,,
991.79,-0.00351,56.6,,,,,,,
991.8,-0.0035,57.58,,,,,,,
991.83,-0.00346,61.21,,,,,,,
991.87,-0.00341,65.66,,,,,,,
991.91,-0.00336,68.7,,,,,,,
991.97,-0.00331,71.65,,,,,,,
992.03,-0.00326,74.12,,,,,,,
992.11,-0.00321,78.01,,,,,,,
992.17,-0.00316,81.43,,,,,,,
992.22,-0.00311,85.14,,,,,,,
992.27,-0.00306,88.75,,,,,,,
992.3,-0.00302,92.0,,,,,,,
992.31,-0.00301,92.79,,,,,,,
992.34,-0.00296,97.68,,,,,,,
992.38,-0.0029,101.55,,,,,,,
992.41,-0.00285,105.84,,,,,,,
992.45,-0.0028,109.61,,,,,,,
992.48,-0.00275,112.7,,,,,,,
992.52,-0.0027,115.41,,,,,,,
992.56,-0.00265,118.17,,,,,,,
992.6,-0.0026,119.77,,,,,,,
992.65,-0.00255,121.72,,,,,,,
992.69,-0.0025,122.79,,,,,,,
992.74,-0.00245,124.17,,,,,,,
992.78,-0.0024,124.76,,,,,,,
992.8,-0.00238,124.88,,,,,,,
992.83,-0.00235,125.83,,,,,,,
992.88,-0.0023,126.01,,,,,,,
992.93,-0.00225,127.17,,,,,,,
992.98,-0.0022,127.58,,,,,,,
993.03,-0.00215,128.23,,,,,,,
993.08,-0.0021,128.73,,,,,,,
993.13,-0.00205,129.64,,,,,,,
993.18,-0.002,129.89,,,,,,,
993.23,-0.00195,130.56,,,,,,,
993.28,-0.0019,130.91,,,,,,,
993.3,-0.00187,131.0,,,,,,,
993.33,-0.00184,131.45,,,,,,,
993.38,-0.00179,131.53,,,,,,,
993.43,-0.00174,132.12,,,,,,,
993.48,-0.00169,131.93,,,,,,,
993.52,-0.00164,131.81,,,,,,,
993.57,-0.00159,132.15,,,,,,,
993.63,-0.00154,131.39,,,,,,,
993.67,-0.00149,131.77,,,,,,,
993.73,-0.00144,131.51,,,,,,,
993.78,-0.00139,132.08,,,,,,,
993.8,-0.00137,131.64,,,,,,,
993.83,-0.00134,131.55,,,,,,,
993.88,-0.00129,132.24,,,,,,,
993.93,-0.00124,132.17,,,,,,,
993.98,-0.00119,132.38,,,,,,,
994.03,-0.00114,132.65,,,,,,,
994.08,-0.00109,132.79,,,,,,,
994.13,-0.00104,132.62,,,,,,,
994.18,-0.00099,132.32,,,,,,,
994.23,-0.00093,132.65,,,,,,,
994.28,-0.00088,133.24,,,,,,,
994.3,-0.00087,132.82,,,,,,,
994.34,-0.00083,133.1,,,,,,,
994.38,-0.00078,133.04,,,,,,,
994.44,-0.00073,133.62,,,,,,,
994.48,-0.00068,133.85,,,,,,,
994.53,-0.00063,133.36,,,,,,,
994.59,-0.00058,133.11,,,,,,,
994.63,-0.00053,133.69,,,,,,,
994.69,-0.00048,133.09,,,,,,,
994.73,-0.00043,133.12,,,,,,,
994.78,-0.00038,133.19,,,,,,,
994.8,-0.00036,132.98,,,,,,,
994.83,-0.00032,133.45,,,,,,,
994.88,-0.00027,132.8,,,,,,,
994.94,-0.00022,132.64,,,,,,,
995.0,-0.00017,132.27,,,,,,,
995.04,-0.00012,132.94,,,,,,,
1960.56,0.00499,137.28,,,,,,,
1960.75,0.00494,109.42,,,,,,,
1960.78,0.00488,101.29,,,,,,,
1960.8,0.00485,96.73,,,,,,,
1960.81,0.00483,93.83,,,,,,,
1960.85,0.00478,86.22,,,,,,,
1960.89,0.00473,79.72,,,,,,,
1960.94,0.00468,73.05,,,,,,,
1960.99,0.00463,66.38,,,,,,,
1961.04,0.00458,60.74,,,,,,,
1961.1,0.00453,53.86,,,,,,,
1961.15,0.00448,47.92,,,,,,,
1961.2,0.00443,42.02,,,,,,,
1961.25,0.00438,36.64,,,,,,,
1961.3,0.00434,31.39,,,,,,,
1961.31,0.00433,29.79,,,,,,,
1961.36,0.00428,25.48,,,,,,,
1961.41,0.00423,20.2,,,,,,,
1961.47,0.00417,14.7,,,,,,,
1961.53,0.00412,8.99,,,,,,,
1961.57,0.00407,4.99,,,,,,,
1961.63,0.00402,-0.69,,,,,,,
1961.69,0.00397,-5.33,,,,,,,
1961.8,0.00394,-6.57,,,,,,,
1961.83,0.00392,-7.67,,,,,,,
1961.91,0.00387,-12.36,,,,,,,
1961.96,0.00382,-15.97,,,,,,,
1962.03,0.00377,-22.09,,,,,,,
1962.08,0.00372,-26.77,,,,,,,
1962.12,0.00366,-33.14,,,,,,,
1962.15,0.00361,-37.84,,,,,,,
1962.2,0.00356,-43.24,,,,,,,
1962.23,0.00351,-46.54,,,,,,,
1962.28,0.00346,-50.65,,,,,,,
1962.3,0.00343,-53.33,,,,,,,
1962.32,0.00341,-55.58,,,,,,,
1962.36,0.00336,-61.42,,,,,,,
1962.39,0.0033,-65.36,,,,,,,
1962.43,0.00325,-70.43,,,,,,,
1962.46,0.0032,-73.33,,,,,,,
1962.5,0.00315,-77.78,,,,,,,
1962.54,0.0031,-80.48,,,,,,,
1962.58,0.00305,-84.11,,,,,,,
1962.63,0.003,-86.67,,,,,,,
1962.67,0.00294,-89.09,,,,,,,
1962.72,0.00289,-90.84,,,,,,,
1962.77,0.00284,-93.26,,,,,,,
1962.8,0.00282,-94.2,,,,,,,
1962.83,0.00279,-95.2,,,,,,,
1962.88,0.00274,-97.65,,,,,,,
1962.93,0.00269,-99.99,,,,,,,
1962.98,0.00264,-101.9,,,,,,,
1963.03,0.00259,-103.8,,,,,,,
1963.08,0.00254,-105.3,,,,,,,
1963.13,0.00249,-107.4,,,,,,,
1963.18,0.00244,-109.1,,,,,,,
1963.23,0.00239,-110.8,,,,,,,
1963.27,0.00234,-111.4,,,,,,,
1963.3,0.00231,-112.4,,,,,,,
1963.32,0.00229,-112.7,,,,,,,
1963.37,0.00224,-114.2,,,,,,,
1963.42,0.00219,-114.9,,,,,,,
1963.47,0.00214,-115.3,,,,,,,
1963.52,0.00208,-116.1,,,,,,,
1963.57,0.00203,-116.6,,,,,,,
1963.62,0.00198,-117.7,,,,,,,
1963.67,0.00193,-118.0,,,,,,,
1963.72,0.00188,-118.8,,,,,,,
1963.77,0.00183,-119.5,,,,,,,
1963.8,0.0018,-120.0,,,,,,,
1963.82,0.00178,-120.4,,,,,,,
1963.86,0.00173,-120.2,,,,,,,
1963.92,0.00168,-120.8,,,,,,,
1963.97,0.00163,-120.5,,,,,,,
1964.02,0.00158,-121.1,,,,,,,
1964.07,0.00153,-121.1,,,,,,,
1964.12,0.00148,-121.3,,,,,,,
1964.17,0.00143,-121.3,,,,,,,
1964.22,0.00138,-121.5,,,,,,,
1964.27,0.00133,-121.7,,,,,,,
1964.3,0.0013,-121.8,,,,,,,
1964.32,0.00128,-122.0,,,,,,,
1964.37,0.00123,-122.2,,,,,,,
1964.42,0.00118,-122.5,,,,,,,
1964.48,0.00113,-122.7,,,,,,,
1964.52,0.00108,-122.9,,,,,,,
1964.57,0.00102,-123.5,,,,,,,
1964.61,0.00097,-123.9,,,,,,,
1964.67,0.00092,-123.5,,,,,,,
1964.71,0.00087,-123.3,,,,,,,
1964.77,0.00082,-123.0,,,,,,,
1964.8,0.00079,-123.0,,,,,,,
1964.82,0.00077,-123.1,,,,,,,
1964.87,0.00072,-122.8,,,,,,,
1964.93,0.00067,-123.4,,,,,,,
1964.98,0.00062,-123.5,,,,,,,
1965.03,0.00057,-123.5,,,,,,,
1965.08,0.00052,-123.7,,,,,,,
1965.13,0.00047,-124.0,,,,,,,
1965.18,0.00042,-124.8,,,,,,,
1965.23,0.00037,-124.7,,,,,,,
1965.28,0.00032,-125.0,,,,,,,
1965.3,0.00029,-125.4,,,,,,,
1965.33,0.00027,-125.6,,,,,,,
1965.38,0.00022,-125.8,,,,,,,
1965.42,0.00017,-125.9,,,,,,,
1965.47,0.00012,-125.9,,,,,,,
1965.52,7e-05,-126.4,,,,,,,
1965.58,2e-05,-126.5,,,,,,,
1965.62,-3e-05,-126.6,,,,,,,
1965.67,-8e-05,-126.4,,,,,,,
1965.72,-0.00013,-126.4,,,,,,,
1965.77,-0.00018,-126.0,,,,,,,
1965.8,-0.00021,-125.9,,,,,,,
1965.82,-0.00024,-125.7,,,,,,,
1965.87,-0.00029,-125.6,,,,,,,
1965.93,-0.00034,-125.1,,,,,,,
1965.98,-0.00039,-125.5,,,,,,,
1966.03,-0.00044,-125.8,,,,,,,
1966.08,-0.00049,-126.2,,,,,,,
1966.13,-0.00054,-126.6,,,,,,,
1966.18,-0.00059,-126.8,,,,,,,
1966.23,-0.00064,-127.1,,,,,,,
1966.28,-0.00069,-126.9,,,,,,,
1966.3,-0.00071,-127.1,,,,,,,
1966.33,-0.00074,-127.2,,,,,,,
1966.38,-0.00079,-126.7,,,,,,,
1966.43,-0.00084,-127.3,,,,,,,
1966.48,-0.00089,-127.4,,,,,,,
1966.53,-0.00094,-127.4,,,,,,,
1966.59,-0.001,-127.2,,,,,,,
1966.64,-0.00105,-127.3,,,,,,,
1966.68,-0.0011,-127.3,,,,,,,
1966.73,-0.00115,-127.6,,,,,,,
1966.78,-0.0012,-127.7,,,,,,,
1966.8,-0.00122,-127.4,,,,,,,
1966.83,-0.00125,-127.3,,,,,,,
1966.88,-0.0013,-126.8,,,,,,,
1966.93,-0.00135,-127.1,,,,,,,
1966.98,-0.0014,-127.1,,,,,,,
1967.04,-0.00145,-126.4,,,,,,,
1967.09,-0.0015,-126.9,,,,,,,
1967.14,-0.00155,-127.2,,,,,,,
1967.2,-0.0016,-127.5,,,,,,,
1967.24,-0.00165,-128.3,,,,,,,
1967.29,-0.0017,-128.9,,,,,,,
1967.3,-0.00171,-128.8,,,,,,,
1967.34,-0.00175,-128.8,,,,,,,
1967.39,-0.0018,-129.3,,,,,,,
1967.43,-0.00185,-129.2,,,,,,,
1967.48,-0.0019,-129.0,,,,,,,
1967.53,-0.00195,-128.5,,,,,,,
1967.59,-0.00201,-128.3,,,,,,,
1967.64,-0.00206,-128.0,,,,,,,
1967.69,-0.00211,-127.8,,,,,,,
1967.74,-0.00216,-128.3,,,,,,,
1967.79,-0.00221,-128.3,,,,,,,
1967.8,-0.00222,-128.1,,,,,,,
1967.84,-0.00226,-128.1,,,,,,,
1967.9,-0.00231,-128.6,,,,,,,
1967.95,-0.00236,-128.5,,,,,,,
1968.0,-0.00241,-128.8,,,,,,,
1968.05,-0.00246,-129.4,,,,,,,
1968.1,-0.00251,-129.3,,,,,,,
1968.15,-0.00256,-129.6,,,,,,,
1968.19,-0.00261,-129.9,,,,,,,
1968.25,-0.00266,-130.0,,,,,,,
1968.3,-0.00271,-130.3,,,,,,,
1968.3,-0.00272,-130.1,,,,,,,
1968.34,-0.00276,-130.3,,,,,,,
1968.39,-0.00281,-130.1,,,,,,,
1968.44,-0.00286,-130.2,,,,,,,
1968.49,-0.00292,-130.1,,,,,,,
1968.54,-0.00297,-129.9,,,,,,,
1968.6,-0.00302,-130.1,,,,,,,
1968.65,-0.00307,-130.0,,,,,,,
1968.7,-0.00312,-130.0,,,,,,,
1968.75,-0.00317,-130.3,,,,,,,
1968.8,-0.00322,-130.6,,,,,,,
1968.8,-0.00322,-130.6,,,,,,,
1968.86,-0.00327,-130.9,,,,,,,
1968.9,-0.00332,-131.1,,,,,,,
1968.95,-0.00337,-131.3,,,,,,,
1969.0,-0.00342,-131.3,,,,,,,
1969.05,-0.00348,-131.3,,,,,,,
1969.1,-0.00353,-131.5,,,,,,,
1969.15,-0.00358,-131.3,,,,,,,
1969.19,-0.00363,-131.5,,,,,,,
1969.25,-0.00368,-130.8,,,,,,,
1969.3,-0.00372,-130.7,,,,,,,
1969.31,-0.00373,-130.5,,,,,,,
1969.36,-0.00378,-130.5,,,,,,,
1969.42,-0.00383,-130.8,,,,,,,
1969.47,-0.00388,-131.5,,,,,,,
1969.51,-0.00393,-131.9,,,,,,,
1969.56,-0.00398,-132.3,,,,,,,
1969.61,-0.00403,-132.7,,,,,,,
1969.66,-0.00408,-132.8,,,,,,,
1969.71,-0.00413,-132.9,,,,,,,
1969.76,-0.00418,-132.4,,,,,,,
1969.8,-0.00422,-132.6,,,,,,,
1969.81,-0.00423,-132.6,,,,,,,
1969.86,-0.00428,-132.5,,,,,,,
1969.91,-0.00434,-132.0,,,,,,,
1969.96,-0.00439,-132.1,,,,,,,
1970.01,-0.00444,-132.3,,,,,,,
1970.06,-0.00449,-132.8,,,,,,,
1970.11,-0.00454,-132.7,,,,,,,
1970.16,-0.00459,-132.7,,,,,,,
1970.22,-0.00464,-132.7,,,,,,,
1970.26,-0.00469,-132.9,,,,,,,
1970.3,-0.00472,-132.8,,,,,,,
1970.31,-0.00474,-132.8,,,,,,,
1970.36,-0.00479,-132.8,,,,,,,
1970.41,-0.00484,-132.7,,,,,,,
1970.47,-0.00489,-132.3,,,,,,,
1970.52,-0.00494,-132.5,,,,,,,
1970.57,-0.00499,-132.0,,,,,,,
1970.74,-0.00494,-105.8,,,,,,,
1970.77,-0.00489,-97.05,,,,,,,
1970.8,-0.00485,-90.25,,,,,,,
1970.81,-0.00484,-89.27,,,,,,,
1970.84,-0.00479,-81.9,,,,,,,
1970.88,-0.00474,-75.28,,,,,,,
1970.92,-0.00469,-67.92,,,,,,,
1970.97,-0.00464,-61.51,,,,,,,
1971.02,-0.00459,-54.85,,,,,,,
1971.07,-0.00454,-48.63,,,,,,,
1971.13,-0.00449,-42.15,,,,,,,
1971.18,-0.00444,-36.33,,,,,,,
1971.23,-0.00439,-30.63,,,,,,,
1971.29,-0.00434,-24.73,,,,,,,
1971.3,-0.00433,-23.66,,,,,,,
1971.35,-0.00428,-18.26,,,,,,,
1971.4,-0.00423,-12.41,,,,,,,
1971.45,-0.00418,-7.11,,,,,,,
1971.51,-0.00413,-1.43,,,,,,,
1971.56,-0.00408,3.6,,,,,,,
1971.61,-0.00403,9.44,,,,,,,
1971.66,-0.00398,13.93,,,,,,,
1971.72,-0.00393,19.4,,,,,,,
1971.77,-0.00388,23.9,,,,,,,
1971.8,-0.00385,26.75,,,,,,,
1971.82,-0.00383,28.73,,,,,,,
1971.87,-0.00378,32.93,,,,,,,
1971.95,-0.00373,35.87,,,,,,,
1972.06,-0.00368,38.52,,,,,,,
1972.13,-0.00363,43.29,,,,,,,
1972.17,-0.00358,49.47,,,,,,,
1972.2,-0.00353,54.41,,,,,,,
1972.24,-0.00348,59.35,,,,,,,
1972.28,-0.00343,63.21,,,,,,,
1972.3,-0.0034,64.98,,,,,,,
1972.33,-0.00338,67.14,,,,,,,
1972.39,-0.00333,70.24,,,,,,,
1972.46,-0.00328,73.04,,,,,,,
1972.52,-0.00322,76.47,,,,,,,
1972.58,-0.00317,79.43,,,,,,,
1972.63,-0.00312,83.55,,,,,,,
1972.68,-0.00307,87.2,,,,,,,
1972.73,-0.00302,91.6,,,,,,,
1972.76,-0.00297,95.71,,,,,,,
1972.8,-0.00292,99.81,,,,,,,
1972.8,-0.00291,100.39,,,,,,,
1972.83,-0.00287,104.18,,,,,,,
1972.86,-0.00282,107.64,,,,,,,
1972.9,-0.00277,110.41,,,,,,,
1972.94,-0.00272,113.8,,,,,,,
1972.98,-0.00267,116.13,,,,,,,
1973.02,-0.00261,118.26,,,,,,,
1973.06,-0.00256,119.76,,,,,,,
1973.1,-0.00251,121.01,,,,,,,
1973.15,-0.00246,121.85,,,,,,,
1973.2,-0.00241,122.49,,,,,,,
1973.25,-0.00236,123.35,,,,,,,
1973.3,-0.00231,123.94,,,,,,,
1973.3,-0.00231,124.29,,,,,,,
1973.35,-0.00226,124.42,,,,,,,
1973.41,-0.00221,125.6,,,,,,,
1973.45,-0.00216,126.45,,,,,,,
1973.5,-0.00211,126.87,,,,,,,
1973.55,-0.00206,127.68,,,,,,,
1973.6,-0.00201,128.6,,,,,,,
1973.65,-0.00196,129.23,,,,,,,
1973.7,-0.00191,129.13,,,,,,,
1973.75,-0.00186,129.52,,,,,,,
1973.8,-0.00181,130.3,,,,,,,
1973.8,-0.0018,129.72,,,,,,,
1973.84,-0.00176,130.46,,,,,,,
1973.89,-0.00171,130.25,,,,,,,
1973.95,-0.00166,130.1,,,,,,,
1974.0,-0.00161,130.28,,,,,,,
1974.05,-0.00155,130.26,,,,,,,
1974.1,-0.0015,130.87,,,,,,,
1974.15,-0.00145,130.93,,,,,,,
1974.2,-0.0014,131.57,,,,,,,
1974.25,-0.00135,131.49,,,,,,,
1974.3,-0.0013,131.95,,,,,,,
1974.3,-0.0013,131.5,,,,,,,
1974.35,-0.00125,132.17,,,,,,,
1974.4,-0.0012,131.88,,,,,,,
1974.45,-0.00115,132.18,,,,,,,
1974.5,-0.0011,132.45,,,,,,,
1974.55,-0.00105,132.92,,,,,,,
1974.6,-0.001,133.01,,,,,,,
1974.65,-0.00095,132.87,,,,,,,
1974.7,-0.0009,132.94,,,,,,,
1974.75,-0.00085,133.03,,,,,,,
1974.8,-0.0008,133.11,,,,,,,
1974.8,-0.0008,133.28,,,,,,,
1974.85,-0.00075,133.24,,,,,,,
1974.9,-0.0007,133.37,,,,,,,
1974.95,-0.00065,134.05,,,,,,,
1975.0,-0.0006,133.96,,,,,,,
1975.05,-0.00055,133.85,,,,,,,
1975.1,-0.0005,133.87,,,,,,,
1975.15,-0.00044,133.23,,,,,,,
1975.2,-0.00039,133.08,,,,,,,
1975.26,-0.00034,133.33,,,,,,,
1975.3,-0.0003,132.97,,,,,,,
1975.31,-0.00029,133.07,,,,,,,
1975.36,-0.00024,133.27,,,,,,,
1975.4,-0.00019,133.31,,,,,,,
1975.45,-0.00014,133.71,,,,,,,
1975.5,-9e-05,133.76,,,,,,,
1975.55,-4e-05,133.73,,,,,,,
1975.6,1e-05,133.46,,,,,,,
1975.65,6e-05,133.21,,,,,,,
1975.7,0.00011,133.1,,,,,,,
1975.76,0.00016,133.17,,,,,,,
1975.8,0.00021,132.68,,,,,,,
1975.81,0.00021,132.99,,,,,,,
1975.86,0.00026,132.5,,,,,,,
1975.91,0.00031,132.52,,,,,,,
1975.96,0.00036,133.01,,,,,,,
1976.01,0.00041,132.69,,,,,,,
1976.06,0.00046,132.74,,,,,,,
1976.11,0.00051,132.89,,,,,,,
1976.16,0.00056,133.17,,,,,,,
1976.21,0.00062,133.04,,,,,,,
1976.26,0.00067,133.22,,,,,,,
1976.3,0.00071,132.92,,,,,,,
1976.31,0.00072,132.83,,,,,,,
1976.36,0.00077,133.04,,,,,,,
1976.41,0.00082,132.95,,,,,,,
1976.46,0.00087,133.1,,,,,,,
1976.51,0.00092,132.9,,,,,,,
1976.56,0.00097,132.73,,,,,,,
1976.62,0.00102,133.35,,,,,,,
1976.67,0.00107,133.01,,,,,,,
1976.72,0.00112,133.31,,,,,,,
1976.77,0.00117,133.51,,,,,,,
1976.8,0.0012,133.76,,,,,,,
1976.82,0.00122,134.42,,,,,,,
1976.87,0.00128,134.63,,,,,,,
1976.92,0.00133,134.04,,,,,,,
1976.97,0.00138,134.47,,,,,,,
1977.02,0.00143,134.63,,,,,,,
1977.07,0.00148,134.77,,,,,,,
1977.12,0.00153,135.08,,,,,,,
1977.18,0.00158,135.21,,,,,,,
1977.22,0.00163,135.75,,,,,,,
1977.27,0.00168,135.75,,,,,,,
1977.3,0.00171,135.64,,,,,,,
1977.32,0.00173,135.92,,,,,,,
1977.37,0.00178,135.56,,,,,,,
1977.42,0.00183,135.86,,,,,,,
1977.47,0.00188,135.67,,,,,,,
1977.52,0.00193,135.33,,,,,,,
1977.57,0.00198,135.89,,,,,,,
1977.62,0.00203,135.37,,,,,,,
1977.67,0.00208,135.27,,,,,,,
1977.72,0.00213,134.91,,,,,,,
1977.77,0.00218,134.77,,,,,,,
1977.8,0.00221,134.78,,,,,,,
1977.82,0.00223,134.98,,,,,,,
1977.88,0.00229,134.94,,,,,,,
1977.92,0.00234,135.1,,,,,,,
1977.97,0.00239,135.06,,,,,,,
1978.03,0.00244,134.97,,,,,,,
1978.08,0.00249,135.11,,,,,,,
1978.13,0.00254,135.62,,,,,,,
1978.17,0.00259,136.1,,,,,,,
1978.22,0.00264,135.81,,,,,,,
1978.28,0.00269,135.6,,,,,,,
1978.3,0.00271,135.65,,,,,,,
1978.32,0.00274,135.94,,,,,,,
1978.38,0.00279,135.83,,,,,,,
1978.43,0.00284,135.56,,,,,,,
1978.47,0.00289,135.88,,,,,,,
1978.53,0.00294,135.88,,,,,,,
1978.57,0.00299,135.9,,,,,,,
1978.63,0.00304,136.19,,,,,,,
1978.68,0.00309,136.08,,,,,,,
1978.73,0.00314,135.93,,,,,,,
1978.77,0.00319,136.36,,,,,,,
1978.8,0.00322,135.86,,,,,,,
1978.83,0.00324,135.93,,,,,,,
1978.87,0.00329,135.78,,,,,,,
1978.93,0.00334,135.83,,,,,,,
1978.98,0.00339,136.05,,,,,,,
1979.03,0.00344,136.23,,,,,,,
1979.08,0.00349,136.48,,,,,,,
1979.13,0.00355,136.29,,,,,,,
1979.18,0.0036,136.43,,,,,,,
1979.23,0.00365,136.63,,,,,,,
1979.28,0.0037,136.85,,,,,,,
1979.3,0.00372,136.85,,,,,,,
1979.33,0.00375,136.84,,,,,,,
1979.38,0.0038,136.94,,,,,,,
1979.43,0.00385,136.25,,,,,,,
1979.48,0.0039,136.53,,,,,,,
1979.53,0.00395,135.98,,,,,,,
1979.58,0.004,135.77,,,,,,,
1979.64,0.00405,135.58,,,,,,,
1979.69,0.0041,135.98,,,,,,,
1979.74,0.00415,136.5,,,,,,,
1979.79,0.0042,136.59,,,,,,,
1979.8,0.00421,136.99,,,,,,,
1979.84,0.00425,137.62,,,,,,,
1979.88,0.00431,138.17,,,,,,,
1979.93,0.00436,138.16,,,,,,,
1979.98,0.00441,137.56,,,,,,,
1980.03,0.00446,137.43,,,,,,,
1980.08,0.00451,137.99,,,,,,,
1980.13,0.00456,137.44,,,,,,,
1980.18,0.00461,136.99,,,,,,,
1980.24,0.00466,137.11,,,,,,,
1980.29,0.00471,137.25,,,,,,,
1980.3,0.00472,137.25,,,,,,,
1980.34,0.00476,137.09,,,,,,,
1980.39,0.00481,137.38,,,,,,,
1980.44,0.00486,137.4,,,,,,,
1980.49,0.00491,138.09,,,,,,,
3961.41,0.00496,135.72,,,,,,,
3961.46,0.00501,135.02,,,,,,,
3961.6,0.00496,113.14,,,,,,,
3961.64,0.00491,104.16,,,,,,,
3961.68,0.00486,96.18,,,,,,,
3961.71,0.00481,89.36,,,,,,,
3961.75,0.00476,82.47,,,,,,,
3961.79,0.00471,75.6,,,,,,,
3961.8,0.0047,74.23,,,,,,,
3961.84,0.00466,69.16,,,,,,,
3961.89,0.00461,63.72,,,,,,,
3961.94,0.00456,57.14,,,,,,,
3962.0,0.00451,50.91,,,,,,,
3962.06,0.00446,45.45,,,,,,,
3962.11,0.00441,39.58,,,,,,,
3962.16,0.00435,34.0,,,,,,,
3962.21,0.0043,28.73,,,,,,,
3962.26,0.00425,24.0,,,,,,,
3962.3,0.00422,19.75,,,,,,,
3962.31,0.0042,18.59,,,,,,,
3962.37,0.00415,12.98,,,,,,,
3962.43,0.0041,8.39,,,,,,,
3962.48,0.00405,3.67,,,,,,,
3962.53,0.004,-0.77,,,,,,,
3962.62,0.00395,-5.13,,,,,,,
3962.74,0.0039,-8.44,,,,,,,
3962.8,0.00386,-12.42,,,,,,,
3962.81,0.00385,-13.03,,,,,,,
3962.87,0.0038,-17.57,,,,,,,
3962.92,0.00375,-21.84,,,,,,,
3962.97,0.0037,-26.54,,,,,,,
3963.01,0.00365,-32.31,,,,,,,
3963.04,0.0036,-37.34,,,,,,,
3963.08,0.00355,-42.03,,,,,,,
3963.11,0.0035,-44.96,,,,,,,
3963.17,0.00344,-49.38,,,,,,,
3963.21,0.00339,-53.17,,,,,,,
3963.24,0.00334,-57.84,,,,,,,
3963.27,0.00329,-62.0,,,,,,,
3963.3,0.00326,-65.11,,,,,,,
3963.31,0.00323,-66.0,,,,,,,
3963.35,0.00318,-70.36,,,,,,,
3963.39,0.00313,-73.57,,,,,,,
3963.43,0.00308,-76.86,,,,,,,
3963.47,0.00303,-79.23,,,,,,,
3963.51,0.00298,-81.85,,,,,,,
3963.56,0.00293,-84.56,,,,,,,
3963.62,0.00288,-86.81,,,,,,,
3963.68,0.00283,-89.29,,,,,,,
3963.71,0.00278,-90.49,,,,,,,
3963.77,0.00273,-93.3,,,,,,,
3963.8,0.00269,-94.21,,,,,,,
3963.82,0.00268,-95.07,,,,,,,
3963.87,0.00263,-96.41,,,,,,,
3963.92,0.00257,-98.38,,,,,,,
3963.97,0.00252,-99.33,,,,,,,
3964.01,0.00247,-100.7,,,,,,,
3964.06,0.00242,-101.7,,,,,,,
3964.13,0.00237,-103.4,,,,,,,
3964.17,0.00232,-104.8,,,,,,,
3964.22,0.00227,-105.8,,,,,,,
3964.28,0.00222,-107.0,,,,,,,
3964.3,0.0022,-107.8,,,,,,,
3964.32,0.00217,-108.5,,,,,,,
3964.37,0.00212,-109.7,,,,,,,
3964.42,0.00207,-111.0,,,,,,,
3964.46,0.00201,-111.2,,,,,,,
3964.51,0.00196,-112.6,,,,,,,
3964.57,0.00191,-113.3,,,,,,,
3964.61,0.00186,-113.3,,,,,,,
3964.67,0.00181,-113.9,,,,,,,
3964.73,0.00176,-114.2,,,,,,,
3964.77,0.00171,-114.5,,,,,,,
3964.8,0.00168,-114.9,,,,,,,
3964.83,0.00166,-115.1,,,,,,,
3964.88,0.00161,-115.8,,,,,,,
3964.93,0.00156,-116.6,,,,,,,
3964.98,0.00151,-117.5,,,,,,,
3965.02,0.00146,-118.1,,,,,,,
3965.08,0.0014,-118.5,,,,,,,
3965.13,0.00135,-119.1,,,,,,,
3965.18,0.0013,-119.5,,,,,,,
3965.22,0.00125,-120.1,,,,,,,
3965.27,0.0012,-119.9,,,,,,,
3965.3,0.00117,-120.2,,,,,,,
3965.32,0.00115,-120.4,,,,,,,
3965.37,0.0011,-119.7,,,,,,,
3965.43,0.00105,-120.2,,,,,,,
3965.47,0.001,-120.1,,,,,,,
3965.52,0.00095,-120.6,,,,,,,
3965.57,0.0009,-120.5,,,,,,,
3965.62,0.00085,-119.9,,,,,,,
3965.67,0.0008,-120.0,,,,,,,
3965.72,0.00075,-119.8,,,,,,,
3965.77,0.0007,-120.0,,,,,,,
3965.8,0.00067,-119.8,,,,,,,
3965.83,0.00065,-119.8,,,,,,,
3965.88,0.0006,-120.1,,,,,,,
3965.93,0.00055,-120.4,,,,,,,
3965.98,0.00049,-120.4,,,,,,,
3966.03,0.00044,-120.7,,,,,,,
3966.08,0.00039,-121.3,,,,,,,
3966.13,0.00034,-121.3,,,,,,,
3966.18,0.00029,-121.9,,,,,,,
3966.23,0.00024,-122.3,,,,,,,
3966.28,0.00019,-122.5,,,,,,,
3966.3,0.00017,-122.4,,,,,,,
3966.33,0.00014,-122.9,,,,,,,
3966.38,9e-05,-122.7,,,,,,,
3966.43,4e-05,-123.1,,,,,,,
3966.48,-1e-05,-122.7,,,,,,,
3966.53,-6e-05,-122.8,,,,,,,
3966.58,-0.00011,-123.3,,,,,,,
3966.63,-0.00016,-123.0,,,,,,,
3966.68,-0.00021,-123.5,,,,,,,
3966.74,-0.00026,-123.2,,,,,,,
3966.79,-0.00031,-123.7,,,,,,,
3966.8,-0.00033,-123.6,,,,,,,
3966.84,-0.00036,-124.0,,,,,,,
3966.89,-0.00041,-124.4,,,,,,,
3966.93,-0.00046,-124.6,,,,,,,
3966.98,-0.00052,-124.9,,,,,,,
3967.03,-0.00057,-124.9,,,,,,,
3967.08,-0.00062,-124.8,,,,,,,
3967.13,-0.00067,-124.8,,,,,,,
3967.18,-0.00072,-125.0,,,,,,,
3967.23,-0.00077,-125.0,,,,,,,
3967.28,-0.00082,-124.6,,,,,,,
3967.3,-0.00084,-124.8,,,,,,,
3967.33,-0.00087,-124.9,,,,,,,
3967.38,-0.00092,-124.8,,,,,,,
3967.43,-0.00097,-125.2,,,,,,,
3967.48,-0.00102,-124.6,,,,,,,
3967.53,-0.00107,-124.7,,,,,,,
3967.58,-0.00112,-124.6,,,,,,,
3967.64,-0.00117,-124.8,,,,,,,
3967.69,-0.00122,-124.7,,,,,,,
3967.74,-0.00127,-124.6,,,,,,,
3967.79,-0.00132,-124.4,,,,,,,
3967.8,-0.00134,-124.8,,,,,,,
3967.84,-0.00137,-125.0,,,,,,,
3967.89,-0.00142,-125.1,,,,,,,
3967.94,-0.00147,-124.9,,,,,,,
3967.99,-0.00152,-125.5,,,,,,,
3968.04,-0.00157,-125.6,,,,,,,
3968.09,-0.00163,-125.0,,,,,,,
3968.14,-0.00168,-125.4,,,,,,,
3968.19,-0.00173,-125.8,,,,,,,
3968.24,-0.00178,-125.5,,,,,,,
3968.29,-0.00183,-125.9,,,,,,,
3968.3,-0.00184,-125.9,,,,,,,
3968.34,-0.00188,-126.0,,,,,,,
3968.39,-0.00193,-126.1,,,,,,,
3968.44,-0.00198,-126.0,,,,,,,
3968.49,-0.00203,-125.7,,,,,,,
3968.54,-0.00208,-125.4,,,,,,,
3968.59,-0.00213,-125.2,,,,,,,
3968.64,-0.00218,-125.5,,,,,,,
3968.69,-0.00223,-125.6,,,,,,,
3968.74,-0.00228,-126.1,,,,,,,
3968.79,-0.00233,-125.8,,,,,,,
3968.8,-0.00234,-126.1,,,,,,,
3968.84,-0.00238,-126.2,,,,,,,
3968.89,-0.00243,-126.2,,,,,,,
3968.94,-0.00248,-126.3,,,,,,,
3968.99,-0.00253,-126.6,,,,,,,
3969.05,-0.00258,-126.1,,,,,,,
3969.09,-0.00264,-126.3,,,,,,,
3969.15,-0.00269,-126.1,,,,,,,
3969.19,-0.00274,-126.0,,,,,,,
3969.24,-0.00279,-126.0,,,,,,,
3969.3,-0.00284,-126.7,,,,,,,
3969.3,-0.00284,-126.4,,,,,,,
3969.35,-0.00289,-126.4,,,,,,,
3969.4,-0.00294,-127.1,,,,,,,
3969.45,-0.00299,-127.1,,,,,,,
3969.5,-0.00304,-127.2,,,,,,,
3969.56,-0.00309,-127.5,,,,,,,
3969.6,-0.00314,-127.6,,,,,,,
3969.65,-0.00319,-128.2,,,,,,,
3969.69,-0.00324,-128.0,,,,,,,
3969.74,-0.00329,-128.1,,,,,,,
3969.79,-0.00334,-128.0,,,,,,,
3969.8,-0.00335,-127.9,,,,,,,
3969.85,-0.00339,-127.7,,,,,,,
3969.9,-0.00344,-127.7,,,,,,,
3969.96,-0.00349,-127.4,,,,,,,
3970.0,-0.00354,-128.1,,,,,,,
3970.05,-0.0036,-128.1,,,,,,,
3970.11,-0.00365,-128.1,,,,,,,
3970.16,-0.0037,-128.6,,,,,,,
3970.2,-0.00375,-129.1,,,,,,,
3970.25,-0.0038,-129.3,,,,,,,
3970.3,-0.00384,-129.2,,,,,,,
3970.3,-0.00385,-129.4,,,,,,,
3970.35,-0.0039,-129.3,,,,,,,
3970.41,-0.00395,-128.8,,,,,,,
3970.46,-0.004,-129.5,,,,,,,
3970.51,-0.00405,-129.2,,,,,,,
3970.56,-0.0041,-129.3,,,,,,,
3970.61,-0.00415,-129.5,,,,,,,
3970.66,-0.0042,-129.3,,,,,,,
3970.7,-0.00425,-129.5,,,,,,,
3970.76,-0.0043,-129.7,,,,,,,
3970.8,-0.00435,-129.7,,,,,,,
3970.81,-0.00435,-129.8,,,,,,,
3970.86,-0.0044,-129.1,,,,,,,
3970.91,-0.00445,-129.6,,,,,,,
3970.97,-0.0045,-129.9,,,,,,,
3971.02,-0.00455,-129.9,,,,,,,
3971.07,-0.0046,-130.2,,,,,,,
3971.12,-0.00465,-131.4,,,,,,,
3971.16,-0.00471,-131.6,,,,,,,
3971.21,-0.00476,-131.8,,,,,,,
3971.26,-0.00481,-132.2,,,,,,,
3971.3,-0.00485,-131.9,,,,,,,
3971.31,-0.00486,-131.8,,,,,,,
3971.36,-0.00491,-131.5,,,,,,,
3971.41,-0.00496,-130.8,,,,,,,
3971.46,-0.00501,-129.7,,,,,,,
3971.6,-0.00496,-106.9,,,,,,,
3971.64,-0.00491,-98.02,,,,,,,
3971.67,-0.00486,-90.04,,,,,,,
3971.71,-0.00481,-82.16,,,,,,,
3971.74,-0.00476,-74.87,,,,,,,
3971.79,-0.00471,-68.01,,,,,,,
3971.8,-0.00469,-65.72,,,,,,,
3971.83,-0.00466,-60.97,,,,,,,
3971.89,-0.00461,-54.36,,,,,,,
3971.94,-0.00455,-47.18,,,,,,,
3972.0,-0.0045,-41.5,,,,,,,
3972.05,-0.00445,-35.07,,,,,,,
3972.11,-0.0044,-28.54,,,,,,,
3972.16,-0.00435,-23.11,,,,,,,
3972.2,-0.0043,-18.04,,,,,,,
3972.25,-0.00425,-12.88,,,,,,,
3972.3,-0.00421,-7.96,,,,,,,
3972.31,-0.0042,-6.85,,,,,,,
3972.37,-0.00415,-1.44,,,,,,,
3972.42,-0.0041,3.91,,,,,,,
3972.47,-0.00405,8.49,,,,,,,
3972.52,-0.004,13.72,,,,,,,
3972.58,-0.00395,18.53,,,,,,,
3972.63,-0.0039,22.98,,,,,,,
3972.69,-0.00385,28.37,,,,,,,
3972.73,-0.0038,31.98,,,,,,,
3972.8,-0.00375,34.98,,,,,,,
3972.8,-0.00375,35.23,,,,,,,
3972.92,-0.0037,38.8,,,,,,,
3972.99,-0.00365,43.08,,,,,,,
3973.04,-0.0036,48.84,,,,,,,
3973.07,-0.00355,53.79,,,,,,,
3973.1,-0.0035,58.6,,,,,,,
3973.14,-0.00344,62.65,,,,,,,
3973.19,-0.00339,65.5,,,,,,,
3973.24,-0.00334,68.78,,,,,,,
3973.3,-0.00329,70.58,,,,,,,
3973.3,-0.00329,70.81,,,,,,,
3973.36,-0.00324,73.09,,,,,,,
3973.42,-0.00319,75.87,,,,,,,
3973.48,-0.00314,78.94,,,,,,,
3973.54,-0.00309,82.61,,,,,,,
3973.59,-0.00304,86.67,,,,,,,
3973.62,-0.00299,90.62,,,,,,,
3973.66,-0.00294,94.99,,,,,,,
3973.69,-0.00289,98.82,,,,,,,
3973.72,-0.00284,102.58,,,,,,,
3973.76,-0.00279,106.0,,,,,,,
3973.8,-0.00274,108.94,,,,,,,
3973.8,-0.00274,109.01,,,,,,,
3973.84,-0.00269,111.33,,,,,,,
3973.88,-0.00264,114.16,,,,,,,
3973.92,-0.00259,115.81,,,,,,,
3973.97,-0.00254,117.42,,,,,,,
3974.01,-0.00249,118.51,,,,,,,
3974.06,-0.00244,119.73,,,,,,,
3974.11,-0.00238,120.69,,,,,,,
3974.16,-0.00233,121.51,,,,,,,
3974.2,-0.00228,122.45,,,,,,,
3974.25,-0.00223,122.51,,,,,,,
3974.3,-0.00218,123.02,,,,,,,
3974.3,-0.00218,122.77,,,,,,,
3974.35,-0.00213,123.26,,,,,,,
3974.4,-0.00208,123.45,,,,,,,
3974.46,-0.00203,123.75,,,,,,,
3974.51,-0.00198,124.59,,,,,,,
3974.56,-0.00193,125.67,,,,,,,
3974.6,-0.00188,126.39,,,,,,,
3974.65,-0.00183,126.6,,,,,,,
3974.7,-0.00178,126.99,,,,,,,
3974.75,-0.00173,126.71,,,,,,,
3974.8,-0.00168,126.72,,,,,,,
3974.85,-0.00163,126.75,,,,,,,
3974.9,-0.00158,127.05,,,,,,,
3974.96,-0.00153,127.62,,,,,,,
3975.01,-0.00148,127.54,,,,,,,
3975.06,-0.00143,127.94,,,,,,,
3975.11,-0.00137,128.01,,,,,,,
3975.16,-0.00132,128.76,,,,,,,
3975.21,-0.00127,129.41,,,,,,,
3975.25,-0.00122,129.17,,,,,,,
3975.3,-0.00118,129.32,,,,,,,
3975.31,-0.00117,129.64,,,,,,,
3975.36,-0.00112,129.71,,,,,,,
3975.41,-0.00107,129.91,,,,,,,
3975.46,-0.00102,130.57,,,,,,,
3975.51,-0.00097,130.97,,,,,,,
3975.56,-0.00092,130.95,,,,,,,
3975.61,-0.00087,131.46,,,,,,,
3975.65,-0.00082,130.99,,,,,,,
3975.7,-0.00077,131.43,,,,,,,
3975.75,-0.00072,131.22,,,,,,,
3975.8,-0.00067,130.62,,,,,,,
3975.8,-0.00067,130.48,,,,,,,
3975.86,-0.00061,130.13,,,,,,,
3975.9,-0.00056,130.31,,,,,,,
3975.96,-0.00051,129.79,,,,,,,
3976.01,-0.00046,129.7,,,,,,,
3976.06,-0.00041,129.54,,,,,,,
3976.11,-0.00036,129.58,,,,,,,
3976.16,-0.00031,129.64,,,,,,,
3976.21,-0.00026,129.74,,,,,,,
3976.27,-0.00021,129.93,,,,,,,
3976.3,-0.00017,130.2,,,,,,,
3976.32,-0.00016,130.29,,,,,,,
3976.36,-0.00011,130.53,,,,,,,
3976.41,-6e-05,130.59,,,,,,,
3976.46,-1e-05,130.55,,,,,,,
3976.51,4e-05,130.57,,,,,,,
3976.56,9e-05,130.36,,,,,,,
3976.62,0.00014,130.23,,,,,,,
3976.67,0.00019,130.19,,,,,,,
3976.72,0.00024,130.06,,,,,,,
3976.77,0.00029,130.55,,,,,,,
3976.8,0.00032,130.53,,,,,,,
3976.82,0.00034,130.58,,,,,,,
3976.87,0.0004,131.42,,,,,,,
3976.92,0.00045,131.5,,,,,,,
3976.97,0.0005,131.51,,,,,,,
3977.02,0.00055,131.51,,,,,,,
3977.07,0.0006,131.46,,,,,,,
3977.12,0.00065,131.52,,,,,,,
3977.17,0.0007,130.86,,,,,,,
3977.22,0.00075,130.66,,,,,,,
3977.27,0.0008,130.24,,,,,,,
3977.3,0.00083,130.4,,,,,,,
3977.32,0.00085,130.61,,,,,,,
3977.37,0.0009,130.34,,,,,,,
3977.42,0.00095,131.02,,,,,,,
3977.47,0.001,130.82,,,,,,,
3977.53,0.00105,131.33,,,,,,,
3977.58,0.0011,131.02,,,,,,,
3977.63,0.00115,131.94,,,,,,,
3977.68,0.0012,132.66,,,,,,,
3977.73,0.00125,132.83,,,,,,,
3977.77,0.0013,132.85,,,,,,,
3977.8,0.00134,132.81,,,,,,,
3977.82,0.00135,133.09,,,,,,,
3977.87,0.0014,132.41,,,,,,,
3977.92,0.00146,132.34,,,,,,,
3977.97,0.00151,132.62,,,,,,,
3978.02,0.00156,132.61,,,,,,,
3978.07,0.00161,132.1,,,,,,,
3978.13,0.00166,131.97,,,,,,,
3978.18,0.00171,131.78,,,,,,,
3978.23,0.00176,132.16,,,,,,,
3978.28,0.00181,132.58,,,,,,,
3978.3,0.00183,132.76,,,,,,,
3978.33,0.00186,133.12,,,,,,,
3978.38,0.00191,133.34,,,,,,,
3978.43,0.00196,133.44,,,,,,,
3978.47,0.00201,133.35,,,,,,,
3978.52,0.00206,133.54,,,,,,,
3978.57,0.00211,132.66,,,,,,,
3978.62,0.00216,132.54,,,,,,,
3978.68,0.00221,132.12,,,,,,,
3978.74,0.00226,132.16,,,,,,,
3978.79,0.00231,132.19,,,,,,,
3978.8,0.00232,132.39,,,,,,,
3978.84,0.00236,133.03,,,,,,,
3978.89,0.00241,133.46,,,,,,,
3978.94,0.00246,133.96,,,,,,,
3978.98,0.00252,134.79,,,,,,,
3979.03,0.00257,135.16,,,,,,,
3979.08,0.00262,135.32,,,,,,,
3979.13,0.00267,135.44,,,,,,,
3979.18,0.00272,134.81,,,,,,,
3979.23,0.00277,134.59,,,,,,,
3979.28,0.00282,134.32,,,,,,,
3979.3,0.00284,134.02,,,,,,,
3979.33,0.00287,133.56,,,,,,,
3979.38,0.00292,133.67,,,,,,,
3979.43,0.00297,133.25,,,,,,,
3979.49,0.00302,132.82,,,,,,,
3979.54,0.00307,133.11,,,,,,,
3979.59,0.00312,133.51,,,,,,,
3979.64,0.00317,133.58,,,,,,,
3979.69,0.00322,134.13,,,,,,,
3979.74,0.00327,134.46,,,,,,,
3979.79,0.00333,134.57,,,,,,,
3979.8,0.00334,134.64,,,,,,,
3979.84,0.00338,134.75,,,,,,,
3979.89,0.00343,134.81,,,,,,,
3979.94,0.00348,134.66,,,,,,,
3979.99,0.00353,134.7,,,,,,,
3980.04,0.00358,134.75,,,,,,,
3980.09,0.00363,135.05,,,,,,,
3980.14,0.00368,135.06,,,,,,,
3980.19,0.00373,134.87,,,,,,,
3980.24,0.00378,134.94,,,,,,,
3980.29,0.00383,135.03,,,,,,,
3980.3,0.00384,134.94,,,,,,,
3980.34,0.00388,134.83,,,,,,,
3980.39,0.00393,134.89,,,,,,,
3980.44,0.00398,134.61,,,,,,,
3980.49,0.00403,134.73,,,,,,,
3980.55,0.00408,134.61,,,,,,,
3980.59,0.00413,134.85,,,,,,,
3980.64,0.00418,134.94,,,,,,,
3980.69,0.00424,134.89,,,,,,,
3980.74,0.00429,134.85,,,,,,,
3980.79,0.00434,134.75,,,,,,,
3980.8,0.00435,134.57,,,,,,,
3980.85,0.00439,134.06,,,,,,,
3980.9,0.00444,134.42,,,,,,,
3980.95,0.00449,134.6,,,,,,,
3981.0,0.00454,134.42,,,,,,,
3981.05,0.00459,134.74,,,,,,,
3981.1,0.00464,134.77,,,,,,,
3981.15,0.00469,135.33,,,,,,,
3981.2,0.00474,134.98,,,,,,,
3981.25,0.00479,135.38,,,,,,,
3981.3,0.00484,135.72,,,,,,,
3981.3,0.00485,135.63,,,,,,,
3981.34,0.00489,135.67,,,,,,,
3981.4,0.00494,135.17,,,,,,,
8963.67,0.00498,127.16,,,,,,,
8963.73,0.00503,125.74,,,,,,,
8963.8,0.00501,115.79,,,,,,,
8963.83,0.00497,108.87,,,,,,,
8963.87,0.00492,100.63,,,,,,,
8963.9,0.00487,93.06,,,,,,,
8963.94,0.00482,86.16,,,,,,,
8963.98,0.00477,79.76,,,,,,,
8964.02,0.00472,73.49,,,,,,,
8964.06,0.00467,67.94,,,,,,,
8964.12,0.00462,61.92,,,,,,,
8964.16,0.00457,57.45,,,,,,,
8964.22,0.00452,52.11,,,,,,,
8964.28,0.00447,46.65,,,,,,,
8964.3,0.00444,44.29,,,,,,,
8964.33,0.00442,41.25,,,,,,,
8964.38,0.00437,36.69,,,,,,,
8964.44,0.00432,31.2,,,,,,,
8964.5,0.00427,25.35,,,,,,,
8964.55,0.00421,20.38,,,,,,,
8964.6,0.00416,15.34,,,,,,,
8964.65,0.00411,10.37,,,,,,,
8964.71,0.00406,5.92,,,,,,,
8964.76,0.00401,1.2,,,,,,,
8964.8,0.00397,-1.71,,,,,,,
8964.82,0.00396,-2.46,,,,,,,
8964.94,0.00391,-4.08,,,,,,,
8965.02,0.00386,-7.74,,,,,,,
8965.09,0.00381,-12.6,,,,,,,
8965.14,0.00376,-16.36,,,,,,,
8965.2,0.00371,-20.15,,,,,,,
8965.25,0.00366,-24.56,,,,,,,
8965.28,0.00361,-29.61,,,,,,,
8965.3,0.00358,-32.43,,,,,,,
8965.32,0.00356,-34.46,,,,,,,
8965.35,0.0035,-38.56,,,,,,,
8965.4,0.00345,-41.61,,,,,,,
8965.45,0.0034,-46.03,,,,,,,
8965.49,0.00335,-49.85,,,,,,,
8965.52,0.0033,-54.03,,,,,,,
8965.55,0.00325,-57.86,,,,,,,
8965.59,0.0032,-61.21,,,,,,,
8965.62,0.00315,-65.0,,,,,,,
8965.66,0.0031,-67.88,,,,,,,
8965.7,0.00305,-70.78,,,,,,,
8965.75,0.003,-72.92,,,,,,,
8965.8,0.00295,-75.2,,,,,,,
8965.8,0.00294,-75.6,,,,,,,
8965.84,0.00289,-77.35,,,,,,,
8965.89,0.00284,-79.41,,,,,,,
8965.94,0.00279,-81.26,,,,,,,
8965.99,0.00274,-82.98,,,,,,,
8966.04,0.00269,-84.74,,,,,,,
8966.09,0.00264,-86.11,,,,,,,
8966.14,0.00259,-87.89,,,,,,,
8966.19,0.00254,-89.25,,,,,,,
8966.24,0.00249,-91.14,,,,,,,
8966.29,0.00244,-92.98,,,,,,,
8966.3,0.00243,-93.13,,,,,,,
8966.34,0.00239,-94.2,,,,,,,
8966.39,0.00234,-95.17,,,,,,,
8966.44,0.00229,-96.41,,,,,,,
8966.49,0.00224,-97.7,,,,,,,
8966.54,0.00219,-98.34,,,,,,,
8966.59,0.00214,-99.48,,,,,,,
8966.63,0.00209,-100.4,,,,,,,
8966.68,0.00204,-100.5,,,,,,,
8966.73,0.00199,-101.2,,,,,,,
8966.78,0.00194,-101.6,,,,,,,
8966.8,0.00192,-102.2,,,,,,,
8966.84,0.00189,-102.0,,,,,,,
8966.89,0.00184,-102.6,,,,,,,
8966.94,0.00178,-103.3,,,,,,,
8966.99,0.00173,-104.2,,,,,,,
8967.04,0.00168,-105.1,,,,,,,
8967.09,0.00163,-105.4,,,,,,,
8967.14,0.00158,-106.0,,,,,,,
8967.19,0.00153,-106.4,,,,,,,
8967.24,0.00148,-107.0,,,,,,,
8967.29,0.00143,-107.5,,,,,,,
8967.3,0.00142,-108.0,,,,,,,
8967.34,0.00138,-108.0,,,,,,,
8967.39,0.00133,-108.3,,,,,,,
8967.44,0.00128,-108.7,,,,,,,
8967.49,0.00123,-109.1,,,,,,,
8967.54,0.00118,-109.1,,,,,,,
8967.59,0.00113,-109.3,,,,,,,
8967.64,0.00108,-109.9,,,,,,,
8967.69,0.00103,-109.9,,,,,,,
8967.74,0.00098,-110.1,,,,,,,
8967.79,0.00093,-109.9,,,,,,,
8967.8,0.00092,-110.5,,,,,,,
8967.84,0.00088,-109.8,,,,,,,
8967.89,0.00083,-110.6,,,,,,,
8967.94,0.00077,-110.4,,,,,,,
8967.98,0.00072,-110.8,,,,,,,
8968.03,0.00067,-111.0,,,,,,,
8968.08,0.00062,-110.5,,,,,,,
8968.14,0.00057,-110.2,,,,,,,
8968.19,0.00052,-109.9,,,,,,,
8968.24,0.00047,-110.1,,,,,,,
8968.29,0.00042,-110.3,,,,,,,
8968.3,0.00041,-110.7,,,,,,,
8968.34,0.00037,-110.6,,,,,,,
8968.39,0.00032,-110.5,,,,,,,
8968.44,0.00027,-110.4,,,,,,,
8968.5,0.00022,-110.5,,,,,,,
8968.55,0.00017,-110.9,,,,,,,
8968.6,0.00012,-111.7,,,,,,,
8968.66,7e-05,-111.7,,,,,,,
8968.7,1e-05,-112.3,,,,,,,
8968.75,-4e-05,-112.5,,,,,,,
8968.8,-9e-05,-113.0,,,,,,,
8968.8,-9e-05,-113.4,,,,,,,
8968.85,-0.00014,-113.4,,,,,,,
8968.9,-0.00019,-113.7,,,,,,,
8968.95,-0.00024,-114.1,,,,,,,
8969.0,-0.00029,-114.0,,,,,,,
8969.05,-0.00034,-114.1,,,,,,,
8969.1,-0.00039,-113.7,,,,,,,
8969.14,-0.00044,-113.6,,,,,,,
8969.19,-0.00049,-113.7,,,,,,,
8969.25,-0.00054,-113.6,,,,,,,
8969.3,-0.00059,-113.6,,,,,,,
8969.36,-0.00064,-113.6,,,,,,,
8969.41,-0.00069,-114.0,,,,,,,
8969.46,-0.00074,-114.2,,,,,,,
8969.51,-0.00079,-114.7,,,,,,,
8969.56,-0.00084,-115.0,,,,,,,
8969.61,-0.00089,-115.9,,,,,,,
8969.66,-0.00094,-115.4,,,,,,,
8969.7,-0.001,-116.3,,,,,,,
8969.76,-0.00105,-116.2,,,,,,,
8969.8,-0.0011,-116.3,,,,,,,
8969.8,-0.0011,-116.2,,,,,,,
8969.85,-0.00115,-115.7,,,,,,,
8969.9,-0.0012,-115.4,,,,,,,
8969.95,-0.00125,-115.3,,,,,,,
8970.01,-0.0013,-115.3,,,,,,,
8970.07,-0.00135,-115.0,,,,,,,
8970.11,-0.0014,-115.5,,,,,,,
8970.16,-0.00145,-115.7,,,,,,,
8970.21,-0.0015,-116.2,,,,,,,
8970.26,-0.00155,-116.0,,,,,,,
8970.3,-0.0016,-115.9,,,,,,,
8970.31,-0.0016,-115.6,,,,,,,
8970.36,-0.00165,-115.9,,,,,,,
8970.41,-0.0017,-115.8,,,,,,,
8970.46,-0.00175,-116.1,,,,,,,
8970.51,-0.0018,-115.8,,,,,,,
8970.56,-0.00185,-115.9,,,,,,,
8970.61,-0.0019,-116.0,,,,,,,
8970.66,-0.00196,-115.7,,,,,,,
8970.71,-0.00201,-115.9,,,,,,,
8970.76,-0.00206,-116.0,,,,,,,
8970.8,-0.0021,-116.1,,,,,,,
8970.81,-0.00211,-115.9,,,,,,,
8970.86,-0.00216,-116.0,,,,,,,
8970.91,-0.00221,-116.1,,,,,,,
8970.96,-0.00226,-116.3,,,,,,,
8971.02,-0.00231,-116.1,,,,,,,
8971.06,-0.00236,-116.2,,,,,,,
8971.12,-0.00241,-116.2,,,,,,,
8971.17,-0.00246,-116.5,,,,,,,
8971.22,-0.00251,-116.7,,,,,,,
8971.27,-0.00256,-116.6,,,,,,,
8971.3,-0.0026,-116.9,,,,,,,
8971.32,-0.00261,-117.0,,,,,,,
8971.37,-0.00266,-117.2,,,,,,,
8971.42,-0.00271,-116.9,,,,,,,
8971.47,-0.00276,-117.0,,,,,,,
8971.52,-0.00281,-117.2,,,,,,,
8971.57,-0.00286,-117.4,,,,,,,
8971.62,-0.00291,-117.8,,,,,,,
8971.67,-0.00297,-117.7,,,,,,,
8971.72,-0.00302,-118.2,,,,,,,
8971.77,-0.00307,-118.4,,,,,,,
8971.8,-0.0031,-118.2,,,,,,,
8971.81,-0.00312,-118.4,,,,,,,
8971.86,-0.00317,-118.2,,,,,,,
8971.92,-0.00322,-117.8,,,,,,,
8971.97,-0.00327,-117.6,,,,,,,
8972.02,-0.00332,-117.6,,,,,,,
8972.06,-0.00337,-117.1,,,,,,,
8972.12,-0.00342,-117.1,,,,,,,
8972.17,-0.00347,-117.1,,,,,,,
8972.23,-0.00352,-117.1,,,,,,,
8972.28,-0.00357,-117.2,,,,,,,
8972.3,-0.00359,-117.3,,,,,,,
8972.33,-0.00362,-117.8,,,,,,,
8972.38,-0.00367,-118.2,,,,,,,
8972.44,-0.00372,-118.8,,,,,,,
8972.48,-0.00377,-119.4,,,,,,,
8972.53,-0.00382,-120.2,,,,,,,
8972.57,-0.00387,-120.6,,,,,,,
8972.62,-0.00392,-120.2,,,,,,,
8972.67,-0.00397,-120.4,,,,,,,
8972.73,-0.00402,-120.7,,,,,,,
8972.78,-0.00408,-120.6,,,,,,,
8972.8,-0.0041,-120.5,,,,,,,
8972.82,-0.00413,-120.5,,,,,,,
8972.87,-0.00418,-120.7,,,,,,,
8972.92,-0.00423,-120.5,,,,,,,
8972.97,-0.00428,-120.5,,,,,,,
8973.02,-0.00433,-120.5,,,,,,,
8973.08,-0.00438,-119.9,,,,,,,
8973.13,-0.00443,-120.1,,,,,,,
8973.18,-0.00448,-119.7,,,,,,,
8973.23,-0.00453,-119.9,,,,,,,
8973.28,-0.00458,-119.9,,,,,,,
8973.3,-0.0046,-120.2,,,,,,,
8973.34,-0.00463,-120.5,,,,,,,
8973.39,-0.00468,-120.8,,,,,,,
8973.44,-0.00473,-121.3,,,,,,,
8973.49,-0.00478,-121.5,,,,,,,
8973.54,-0.00484,-122.2,,,,,,,
8973.59,-0.00489,-122.2,,,,,,,
8973.64,-0.00494,-122.6,,,,,,,
8973.69,-0.00499,-122.5,,,,,,,
8973.8,-0.00501,-110.8,,,,,,,
8973.87,-0.00494,-96.44,,,,,,,
8973.9,-0.00488,-88.43,,,,,,,
8973.93,-0.00483,-81.35,,,,,,,
8973.96,-0.00478,-74.78,,,,,,,
8974.0,-0.00473,-67.85,,,,,,,
8974.04,-0.00468,-61.66,,,,,,,
8974.09,-0.00463,-55.81,,,,,,,
8974.15,-0.00458,-49.19,,,,,,,
8974.21,-0.00453,-43.22,,,,,,,
8974.26,-0.00448,-37.57,,,,,,,
8974.3,-0.00445,-33.31,,,,,,,
8974.32,-0.00443,-31.69,,,,,,,
8974.37,-0.00438,-26.23,,,,,,,
8974.42,-0.00433,-21.19,,,,,,,
8974.47,-0.00428,-16.7,,,,,,,
8974.52,-0.00423,-11.69,,,,,,,
8974.57,-0.00418,-6.32,,,,,,,
8974.62,-0.00413,-1.73,,,,,,,
8974.68,-0.00408,3.07,,,,,,,
8974.73,-0.00402,7.45,,,,,,,
8974.79,-0.00397,12.11,,,,,,,
8974.8,-0.00396,13.44,,,,,,,
8974.84,-0.00392,16.91,,,,,,,
8974.89,-0.00387,21.34,,,,,,,
8974.95,-0.00382,26.09,,,,,,,
8975.0,-0.00377,30.02,,,,,,,
8975.07,-0.00372,33.77,,,,,,,
8975.15,-0.00367,36.56,,,,,,,
8975.25,-0.00362,40.18,,,,,,,
8975.3,-0.00358,43.73,,,,,,,
8975.31,-0.00357,44.33,,,,,,,
8975.35,-0.00352,49.92,,,,,,,
8975.38,-0.00347,54.26,,,,,,,
8975.41,-0.00342,58.27,,,,,,,
8975.45,-0.00337,61.69,,,,,,,
8975.49,-0.00332,64.1,,,,,,,
8975.55,-0.00327,66.24,,,,,,,
8975.62,-0.00322,68.53,,,,,,,
8975.68,-0.00317,70.59,,,,,,,
8975.74,-0.00312,73.63,,,,,,,
8975.79,-0.00307,76.22,,,,,,,
8975.8,-0.00306,76.92,,,,,,,
8975.84,-0.00302,79.34,,,,,,,
8975.89,-0.00297,82.29,,,,,,,
8975.93,-0.00292,85.9,,,,,,,
8975.97,-0.00287,89.62,,,,,,,
8976.0,-0.00282,92.95,,,,,,,
8976.03,-0.00276,96.47,,,,,,,
8976.07,-0.00271,99.18,,,,,,,
8976.1,-0.00266,101.44,,,,,,,
8976.14,-0.00261,103.64,,,,,,,
8976.18,-0.00256,105.14,,,,,,,
8976.23,-0.00251,106.02,,,,,,,
8976.27,-0.00246,106.75,,,,,,,
8976.3,-0.00243,107.3,,,,,,,
8976.32,-0.00241,107.19,,,,,,,
8976.37,-0.00236,107.76,,,,,,,
8976.42,-0.00231,108.69,,,,,,,
8976.48,-0.00226,109.43,,,,,,,
8976.52,-0.00221,110.06,,,,,,,
8976.58,-0.00216,111.2,,,,,,,
8976.63,-0.00211,111.75,,,,,,,
8976.68,-0.00206,112.6,,,,,,,
8976.73,-0.00201,113.04,,,,,,,
8976.77,-0.00195,113.76,,,,,,,
8976.8,-0.00193,114.05,,,,,,,
8976.82,-0.0019,114.26,,,,,,,
8976.87,-0.00185,114.61,,,,,,,
8976.93,-0.0018,115.53,,,,,,,
8976.98,-0.00175,115.88,,,,,,,
8977.02,-0.0017,116.74,,,,,,,
8977.07,-0.00165,117.06,,,,,,,
8977.12,-0.0016,117.0,,,,,,,
8977.17,-0.00155,117.4,,,,,,,
8977.22,-0.0015,117.92,,,,,,,
8977.27,-0.00145,117.68,,,,,,,
8977.3,-0.00143,117.9,,,,,,,
8977.33,-0.0014,118.16,,,,,,,
8977.38,-0.00135,118.64,,,,,,,
8977.43,-0.0013,118.7,,,,,,,
8977.48,-0.00125,119.34,,,,,,,
8977.53,-0.0012,119.74,,,,,,,
8977.57,-0.00114,120.2,,,,,,,
8977.62,-0.00109,119.76,,,,,,,
8977.67,-0.00104,119.71,,,,,,,
8977.73,-0.00099,119.77,,,,,,,
8977.78,-0.00094,120.09,,,,,,,
8977.8,-0.00092,120.13,,,,,,,
8977.83,-0.00089,120.37,,,,,,,
8977.88,-0.00084,120.86,,,,,,,
8977.94,-0.00079,121.06,,,,,,,
8977.98,-0.00074,121.42,,,,,,,
8978.03,-0.00069,121.69,,,,,,,
8978.08,-0.00064,122.16,,,,,,,
8978.13,-0.00059,122.13,,,,,,,
8978.18,-0.00054,121.93,,,,,,,
8978.23,-0.00049,121.8,,,,,,,
8978.28,-0.00044,122.08,,,,,,,
8978.3,-0.00041,121.66,,,,,,,
8978.33,-0.00039,122.02,,,,,,,
8978.38,-0.00034,121.45,,,,,,,
8978.43,-0.00029,121.89,,,,,,,
8978.48,-0.00023,121.72,,,,,,,
8978.53,-0.00018,121.71,,,,,,,
8978.58,-0.00013,121.99,,,,,,,
8978.63,-8e-05,122.07,,,,,,,
8978.69,-3e-05,121.77,,,,,,,
8978.74,2e-05,121.88,,,,,,,
8978.79,7e-05,121.95,,,,,,,
8978.8,8e-05,121.65,,,,,,,
8978.84,0.00012,121.63,,,,,,,
8978.89,0.00017,122.2,,,,,,,
8978.94,0.00022,121.66,,,,,,,
8978.99,0.00027,122.35,,,,,,,
8979.04,0.00032,122.3,,,,,,,
8979.09,0.00037,122.28,,,,,,,
8979.14,0.00042,121.92,,,,,,,
8979.2,0.00047,122.47,,,,,,,
8979.25,0.00053,122.03,,,,,,,
8979.3,0.00058,122.57,,,,,,,
8979.3,0.00058,122.61,,,,,,,
8979.35,0.00063,122.84,,,,,,,
8979.39,0.00068,123.5,,,,,,,
8979.44,0.00073,124.04,,,,,,,
8979.49,0.00078,123.96,,,,,,,
8979.54,0.00083,124.19,,,,,,,
8979.59,0.00088,123.89,,,,,,,
8979.65,0.00093,123.65,,,,,,,
8979.69,0.00098,123.9,,,,,,,
8979.74,0.00103,124.1,,,,,,,
8979.8,0.00108,124.02,,,,,,,
8979.8,0.00109,123.84,,,,,,,
8979.85,0.00113,124.12,,,,,,,
8979.89,0.00118,124.37,,,,,,,
8979.94,0.00123,124.29,,,,,,,
8979.99,0.00128,124.24,,,,,,,
8980.04,0.00133,124.5,,,,,,,
8980.1,0.00138,123.93,,,,,,,
8980.15,0.00143,124.18,,,,,,,
8980.21,0.00148,124.41,,,,,,,
8980.25,0.00153,124.34,,,,,,,
8980.3,0.00158,124.9,,,,,,,
8980.35,0.00163,125.12,,,,,,,
8980.39,0.00168,125.67,,,,,,,
8980.44,0.00173,125.42,,,,,,,
8980.49,0.00179,125.15,,,,,,,
8980.54,0.00184,125.12,,,,,,,
8980.59,0.00189,125.09,,,,,,,
8980.65,0.00194,124.74,,,,,,,
8980.7,0.00199,124.62,,,,,,,
8980.75,0.00204,124.69,,,,,,,
8980.8,0.00209,124.3,,,,,,,
8980.8,0.00209,124.42,,,,,,,
8980.85,0.00214,124.89,,,,,,,
8980.9,0.00219,124.63,,,,,,,
8980.95,0.00224,124.23,,,,,,,
8981.0,0.00229,124.29,,,,,,,
8981.05,0.00234,124.37,,,,,,,
8981.1,0.00239,124.4,,,,,,,
8981.15,0.00244,124.64,,,,,,,
8981.2,0.00249,124.64,,,,,,,
8981.25,0.00254,124.73,,,,,,,
8981.3,0.00259,124.86,,,,,,,
8981.3,0.00259,124.54,,,,,,,
8981.35,0.00264,124.8,,,,,,,
8981.4,0.00269,124.21,,,,,,,
8981.46,0.00274,124.61,,,,,,,
8981.51,0.00279,125.09,,,,,,,
8981.56,0.00284,125.39,,,,,,,
8981.61,0.0029,125.77,,,,,,,
8981.66,0.00295,125.78,,,,,,,
8981.7,0.003,126.34,,,,,,,
8981.75,0.00305,125.92,,,,,,,
8981.8,0.00309,125.96,,,,,,,
8981.81,0.0031,126.48,,,,,,,
8981.85,0.00315,126.38,,,,,,,
8981.9,0.0032,126.21,,,,,,,
8981.95,0.00325,125.8,,,,,,,
8982.0,0.0033,125.69,,,,,,,
8982.06,0.00335,125.32,,,,,,,
8982.11,0.0034,125.78,,,,,,,
8982.15,0.00345,125.45,,,,,,,
8982.21,0.0035,125.23,,,,,,,
8982.26,0.00355,125.6,,,,,,,
8982.3,0.00359,125.4,,,,,,,
8982.31,0.0036,125.55,,,,,,,
8982.36,0.00365,125.31,,,,,,,
8982.41,0.0037,125.6,,,,,,,
8982.46,0.00375,125.63,,,,,,,
8982.51,0.00381,125.92,,,,,,,
8982.56,0.00386,126.52,,,,,,,
8982.61,0.00391,126.51,,,,,,,
8982.66,0.00396,126.29,,,,,,,
8982.71,0.00401,126.43,,,,,,,
8982.76,0.00406,126.71,,,,,,,
8982.8,0.0041,126.52,,,,,,,
8982.81,0.00411,126.88,,,,,,,
8982.86,0.00416,126.58,,,,,,,
8982.92,0.00421,126.66,,,,,,,
8982.96,0.00426,126.72,,,,,,,
8983.02,0.00431,127.23,,,,,,,
8983.07,0.00436,127.44,,,,,,,
8983.12,0.00441,127.45,,,,,,,
8983.17,0.00446,127.67,,,,,,,
8983.21,0.00451,128.11,,,,,,,
8983.26,0.00456,127.88,,,,,,,
8983.3,0.0046,127.73,,,,,,,
8983.31,0.00461,128.0,,,,,,,
8983.37,0.00466,127.58,,,,,,,
8983.42,0.00471,127.82,,,,,,,
8983.47,0.00477,127.61,,,,,,,
8983.52,0.00482,128.32,,,,,,,
8983.57,0.00487,127.95,,,,,,,
8983.62,0.00492,128.4,,,,,,,
9964.13,0.005,124.7,,,,,,,
9964.29,0.00495,102.21,,,,,,,
9964.3,0.00494,101.03,,,,,,,
9964.33,0.0049,95.49,,,,,,,
9964.36,0.00485,88.26,,,,,,,
9964.39,0.0048,82.21,,,,,,,
9964.43,0.00474,75.88,,,,,,,
9964.47,0.00469,70.62,,,,,,,
9964.52,0.00464,64.7,,,,,,,
9964.58,0.00459,59.13,,,,,,,
9964.64,0.00454,54.06,,,,,,,
9964.69,0.00449,48.58,,,,,,,
9964.74,0.00444,43.4,,,,,,,
9964.8,0.00439,38.51,,,,,,,
9964.8,0.00438,38.61,,,,,,,
9964.85,0.00434,33.72,,,,,,,
9964.9,0.00429,29.26,,,,,,,
9964.95,0.00424,24.17,,,,,,,
9965.0,0.00419,20.02,,,,,,,
9965.06,0.00414,15.69,,,,,,,
9965.11,0.00409,10.59,,,,,,,
9965.16,0.00404,6.86,,,,,,,
9965.22,0.00399,2.27,,,,,,,
9965.27,0.00394,-0.93,,,,,,,
9965.3,0.00392,-1.66,,,,,,,
9965.39,0.00389,-3.33,,,,,,,
9965.48,0.00384,-7.3,,,,,,,
9965.54,0.00379,-11.12,,,,,,,
9965.6,0.00373,-15.31,,,,,,,
9965.66,0.00368,-19.94,,,,,,,
9965.71,0.00363,-23.94,,,,,,,
9965.75,0.00358,-28.51,,,,,,,
9965.78,0.00353,-33.1,,,,,,,
9965.8,0.0035,-35.47,,,,,,,
9965.81,0.00348,-36.95,,,,,,,
9965.86,0.00343,-40.09,,,,,,,
9965.91,0.00338,-43.61,,,,,,,
9965.94,0.00333,-47.36,,,,,,,
9965.98,0.00328,-51.27,,,,,,,
9966.02,0.00323,-55.29,,,,,,,
9966.05,0.00317,-58.97,,,,,,,
9966.09,0.00312,-62.45,,,,,,,
9966.12,0.00307,-65.53,,,,,,,
9966.16,0.00302,-67.82,,,,,,,
9966.21,0.00297,-70.33,,,,,,,
9966.25,0.00292,-71.97,,,,,,,
9966.3,0.00287,-73.69,,,,,,,
9966.3,0.00287,-73.94,,,,,,,
9966.35,0.00282,-75.54,,,,,,,
9966.4,0.00277,-76.8,,,,,,,
9966.45,0.00272,-78.66,,,,,,,
9966.5,0.00267,-80.34,,,,,,,
9966.55,0.00262,-81.97,,,,,,,
9966.6,0.00257,-83.42,,,,,,,
9966.65,0.00252,-84.74,,,,,,,
9966.7,0.00247,-85.93,,,,,,,
9966.75,0.00242,-87.77,,,,,,,
9966.8,0.00237,-89.16,,,,,,,
9966.8,0.00236,-88.94,,,,,,,
9966.85,0.00232,-89.95,,,,,,,
9966.9,0.00227,-90.95,,,,,,,
9966.95,0.00222,-92.02,,,,,,,
9967.0,0.00217,-93.03,,,,,,,
9967.06,0.00212,-94.29,,,,,,,
9967.11,0.00206,-95.5,,,,,,,
9967.16,0.00201,-96.58,,,,,,,
9967.2,0.00196,-97.9,,,,,,,
9967.25,0.00191,-98.18,,,,,,,
9967.3,0.00186,-98.82,,,,,,,
9967.3,0.00186,-99.34,,,,,,,
9967.35,0.00181,-99.55,,,,,,,
9967.4,0.00176,-99.68,,,,,,,
9967.45,0.00171,-100.2,,,,,,,
9967.5,0.00166,-101.0,,,,,,,
9967.56,0.00161,-101.6,,,,,,,
9967.6,0.00156,-101.8,,,,,,,
9967.65,0.00151,-102.3,,,,,,,
9967.71,0.00146,-102.6,,,,,,,
9967.75,0.00141,-103.2,,,,,,,
9967.8,0.00136,-103.8,,,,,,,
9967.8,0.00136,-103.8,,,,,,,
9967.86,0.00131,-104.4,,,,,,,
9967.9,0.00126,-104.7,,,,,,,
9967.95,0.00121,-105.0,,,,,,,
9968.0,0.00115,-105.2,,,,,,,
9968.05,0.0011,-105.5,,,,,,,
9968.11,0.00105,-105.7,,,,,,,
9968.16,0.001,-106.1,,,,,,,
9968.21,0.00095,-106.4,,,,,,,
9968.26,0.0009,-106.5,,,,,,,
9968.3,0.00086,-107.0,,,,,,,
9968.31,0.00085,-106.9,,,,,,,
9968.36,0.0008,-107.2,,,,,,,
9968.41,0.00075,-107.7,,,,,,,
9968.46,0.0007,-108.0,,,,,,,
9968.5,0.00065,-108.0,,,,,,,
9968.55,0.0006,-107.9,,,,,,,
9968.6,0.00055,-107.9,,,,,,,
9968.65,0.0005,-107.4,,,,,,,
9968.71,0.00045,-107.2,,,,,,,
9968.76,0.0004,-107.2,,,,,,,
9968.8,0.00035,-107.6,,,,,,,
9968.81,0.00034,-107.4,,,,,,,
9968.86,0.00029,-107.9,,,,,,,
9968.91,0.00024,-107.6,,,,,,,
9968.96,0.00019,-108.2,,,,,,,
9969.01,0.00014,-108.1,,,,,,,
9969.06,9e-05,-108.5,,,,,,,
9969.11,4e-05,-108.9,,,,,,,
9969.16,-1e-05,-109.0,,,,,,,
9969.21,-6e-05,-109.6,,,,,,,
9969.26,-0.00011,-109.8,,,,,,,
9969.3,-0.00015,-110.1,,,,,,,
9969.31,-0.00016,-109.8,,,,,,,
9969.36,-0.00021,-110.1,,,,,,,
9969.41,-0.00026,-109.6,,,,,,,
9969.46,-0.00031,-109.9,,,,,,,
9969.51,-0.00036,-110.0,,,,,,,
9969.57,-0.00041,-110.4,,,,,,,
9969.62,-0.00046,-110.1,,,,,,,
9969.67,-0.00051,-110.6,,,,,,,
9969.72,-0.00057,-110.6,,,,,,,
9969.77,-0.00062,-111.1,,,,,,,
9969.8,-0.00065,-111.3,,,,,,,
9969.82,-0.00067,-111.5,,,,,,,
9969.87,-0.00072,-111.4,,,,,,,
9969.91,-0.00077,-111.8,,,,,,,
9969.96,-0.00082,-111.2,,,,,,,
9970.02,-0.00087,-111.0,,,,,,,
9970.07,-0.00092,-110.6,,,,,,,
9970.12,-0.00097,-110.7,,,,,,,
9970.17,-0.00102,-110.6,,,,,,,
9970.22,-0.00107,-110.9,,,,,,,
9970.28,-0.00112,-111.2,,,,,,,
9970.3,-0.00115,-111.9,,,,,,,
9970.33,-0.00117,-112.1,,,,,,,
9970.37,-0.00123,-111.9,,,,,,,
9970.43,-0.00128,-112.1,,,,,,,
9970.48,-0.00133,-112.4,,,,,,,
9970.52,-0.00138,-112.6,,,,,,,
9970.57,-0.00143,-112.7,,,,,,,
9970.63,-0.00148,-112.8,,,,,,,
9970.68,-0.00153,-112.6,,,,,,,
9970.73,-0.00158,-112.6,,,,,,,
9970.78,-0.00163,-112.7,,,,,,,
9970.8,-0.00165,-113.0,,,,,,,
9970.83,-0.00168,-113.0,,,,,,,
9970.88,-0.00173,-112.8,,,,,,,
9970.93,-0.00178,-113.1,,,,,,,
9970.98,-0.00183,-112.7,,,,,,,
9971.03,-0.00188,-112.7,,,,,,,
9971.08,-0.00193,-112.7,,,,,,,
9971.13,-0.00198,-112.7,,,,,,,
9971.18,-0.00203,-112.6,,,,,,,
9971.23,-0.00208,-113.0,,,,,,,
9971.28,-0.00213,-112.5,,,,,,,
9971.3,-0.00215,-113.1,,,,,,,
9971.34,-0.00218,-113.0,,,,,,,
9971.39,-0.00223,-113.5,,,,,,,
9971.44,-0.00228,-113.7,,,,,,,
9971.49,-0.00234,-114.4,,,,,,,
9971.53,-0.00239,-115.0,,,,,,,
9971.58,-0.00244,-115.1,,,,,,,
9971.63,-0.00249,-115.1,,,,,,,
9971.68,-0.00254,-114.9,,,,,,,
9971.73,-0.00259,-114.8,,,,,,,
9971.78,-0.00264,-114.4,,,,,,,
9971.8,-0.00266,-114.3,,,,,,,
9971.84,-0.00269,-113.8,,,,,,,
9971.89,-0.00274,-113.8,,,,,,,
9971.94,-0.00279,-114.0,,,,,,,
9971.99,-0.00284,-114.1,,,,,,,
9972.03,-0.00289,-114.3,,,,,,,
9972.09,-0.00294,-114.1,,,,,,,
9972.14,-0.00299,-114.3,,,,,,,
9972.18,-0.00304,-114.1,,,,,,,
9972.24,-0.00309,-114.4,,,,,,,
9972.29,-0.00314,-114.4,,,,,,,
9972.3,-0.00316,-114.6,,,,,,,
9972.33,-0.00319,-114.7,,,,,,,
9972.39,-0.00324,-114.8,,,,,,,
9972.44,-0.00329,-115.1,,,,,,,
9972.49,-0.00334,-115.3,,,,,,,
9972.54,-0.00339,-115.1,,,,,,,
9972.59,-0.00344,-115.3,,,,,,,
9972.64,-0.0035,-115.5,,,,,,,
9972.69,-0.00355,-115.1,,,,,,,
9972.74,-0.0036,-115.6,,,,,,,
9972.8,-0.00365,-115.6,,,,,,,
9972.8,-0.00365,-115.7,,,,,,,
9972.84,-0.0037,-115.8,,,,,,,
9972.9,-0.00375,-116.1,,,,,,,
9972.94,-0.0038,-116.7,,,,,,,
9972.99,-0.00385,-116.7,,,,,,,
9973.04,-0.0039,-117.3,,,,,,,
9973.09,-0.00395,-117.0,,,,,,,
9973.14,-0.004,-117.1,,,,,,,
9973.19,-0.00405,-117.2,,,,,,,
9973.24,-0.0041,-117.0,,,,,,,
9973.29,-0.00415,-116.4,,,,,,,
9973.3,-0.00416,-116.6,,,,,,,
9973.35,-0.0042,-116.4,,,,,,,
9973.4,-0.00425,-116.7,,,,,,,
9973.45,-0.0043,-116.6,,,,,,,
9973.5,-0.00435,-116.8,,,,,,,
9973.55,-0.0044,-117.1,,,,,,,
9973.6,-0.00445,-117.3,,,,,,,
9973.65,-0.00451,-117.8,,,,,,,
9973.7,-0.00456,-117.9,,,,,,,
9973.75,-0.00461,-117.6,,,,,,,
9973.8,-0.00466,-117.6,,,,,,,
9973.8,-0.00466,-117.8,,,,,,,
9973.85,-0.00471,-117.8,,,,,,,
9973.9,-0.00476,-117.6,,,,,,,
9973.95,-0.00481,-118.2,,,,,,,
9974.0,-0.00486,-118.5,,,,,,,
9974.05,-0.00491,-118.7,,,,,,,
9974.1,-0.00496,-118.9,,,,,,,
9974.16,-0.00501,-117.1,,,,,,,
9974.28,-0.00496,-99.29,,,,,,,
9974.3,-0.00493,-94.39,,,,,,,
9974.32,-0.00491,-89.73,,,,,,,
9974.35,-0.00486,-83.06,,,,,,,
9974.38,-0.00481,-76.69,,,,,,,
9974.42,-0.00476,-69.91,,,,,,,
9974.47,-0.00471,-63.16,,,,,,,
9974.51,-0.00466,-57.26,,,,,,,
9974.57,-0.00461,-50.68,,,,,,,
9974.62,-0.00455,-44.98,,,,,,,
9974.67,-0.0045,-39.7,,,,,,,
9974.73,-0.00445,-33.57,,,,,,,
9974.78,-0.0044,-28.71,,,,,,,
9974.8,-0.00439,-26.65,,,,,,,
9974.84,-0.00435,-23.02,,,,,,,
9974.89,-0.0043,-18.04,,,,,,,
9974.94,-0.00425,-12.44,,,,,,,
9975.0,-0.0042,-7.69,,,,,,,
9975.05,-0.00415,-2.19,,,,,,,
9975.1,-0.0041,2.4,,,,,,,
9975.15,-0.00405,7.02,,,,,,,
9975.21,-0.004,11.67,,,,,,,
9975.26,-0.00395,16.3,,,,,,,
9975.3,-0.00391,19.85,,,,,,,
9975.31,-0.0039,20.03,,,,,,,
9975.36,-0.00385,24.46,,,,,,,
9975.42,-0.0038,28.42,,,,,,,
9975.47,-0.00375,32.58,,,,,,,
9975.55,-0.0037,34.96,,,,,,,
9975.66,-0.00365,37.7,,,,,,,
9975.72,-0.0036,41.92,,,,,,,
9975.77,-0.00354,47.11,,,,,,,
9975.8,-0.00349,51.56,,,,,,,
9975.8,-0.00349,51.91,,,,,,,
9975.83,-0.00344,56.27,,,,,,,
9975.87,-0.00339,60.23,,,,,,,
9975.91,-0.00334,63.17,,,,,,,
9975.97,-0.00329,65.57,,,,,,,
9976.03,-0.00324,67.3,,,,,,,
9976.1,-0.00319,70.02,,,,,,,
9976.16,-0.00314,72.08,,,,,,,
9976.21,-0.00309,74.63,,,,,,,
9976.27,-0.00304,78.19,,,,,,,
9976.3,-0.003,80.16,,,,,,,
9976.31,-0.00299,80.65,,,,,,,
9976.35,-0.00294,84.37,,,,,,,
9976.39,-0.00289,88.01,,,,,,,
9976.42,-0.00284,91.28,,,,,,,
9976.45,-0.00279,94.09,,,,,,,
9976.49,-0.00274,96.66,,,,,,,
9976.52,-0.00269,98.79,,,,,,,
9976.56,-0.00263,100.99,,,,,,,
9976.6,-0.00258,102.58,,,,,,,
9976.64,-0.00253,103.38,,,,,,,
9976.69,-0.00248,103.99,,,,,,,
9976.74,-0.00243,104.46,,,,,,,
9976.79,-0.00238,104.76,,,,,,,
9976.8,-0.00237,104.69,,,,,,,
9976.84,-0.00233,105.08,,,,,,,
9976.89,-0.00228,105.3,,,,,,,
9976.94,-0.00223,105.97,,,,,,,
9976.99,-0.00218,106.56,,,,,,,
9977.04,-0.00213,107.46,,,,,,,
9977.09,-0.00208,107.84,,,,,,,
9977.14,-0.00203,108.73,,,,,,,
9977.19,-0.00198,109.04,,,,,,,
9977.24,-0.00193,109.86,,,,,,,
9977.29,-0.00188,110.42,,,,,,,
9977.3,-0.00187,110.54,,,,,,,
9977.34,-0.00183,111.07,,,,,,,
9977.39,-0.00177,111.48,,,,,,,
9977.44,-0.00172,112.12,,,,,,,
9977.49,-0.00167,112.55,,,,,,,
9977.54,-0.00162,112.96,,,,,,,
9977.59,-0.00157,113.48,,,,,,,
9977.65,-0.00152,113.52,,,,,,,
9977.7,-0.00147,114.11,,,,,,,
9977.75,-0.00142,115.17,,,,,,,
9977.79,-0.00137,115.49,,,,,,,
9977.8,-0.00136,115.4,,,,,,,
9977.84,-0.00132,115.71,,,,,,,
9977.89,-0.00127,115.98,,,,,,,
9977.94,-0.00122,116.12,,,,,,,
9977.99,-0.00117,116.48,,,,,,,
9978.04,-0.00112,116.55,,,,,,,
9978.09,-0.00107,116.58,,,,,,,
9978.14,-0.00102,116.61,,,,,,,
9978.2,-0.00097,116.84,,,,,,,
9978.24,-0.00092,116.73,,,,,,,
9978.29,-0.00087,116.8,,,,,,,
9978.3,-0.00086,116.91,,,,,,,
9978.35,-0.00082,117.03,,,,,,,
9978.4,-0.00076,117.33,,,,,,,
9978.44,-0.00071,117.59,,,,,,,
9978.49,-0.00066,117.74,,,,,,,
9978.55,-0.00061,118.5,,,,,,,
9978.6,-0.00056,117.97,,,,,,,
9978.65,-0.00051,118.58,,,,,,,
9978.7,-0.00046,118.14,,,,,,,
9978.75,-0.00041,118.61,,,,,,,
9978.8,-0.00036,118.28,,,,,,,
9978.8,-0.00035,118.36,,,,,,,
9978.84,-0.00031,118.73,,,,,,,
9978.9,-0.00026,118.36,,,,,,,
9978.95,-0.00021,118.21,,,,,,,
9979.0,-0.00016,118.14,,,,,,,
9979.06,-0.00011,118.39,,,,,,,
9979.11,-6e-05,118.92,,,,,,,
9979.16,-0.0,118.96,,,,,,,
9979.21,5e-05,119.13,,,,,,,
9979.26,0.0001,119.81,,,,,,,
9979.3,0.00014,119.74,,,,,,,
9979.31,0.00015,119.55,,,,,,,
9979.36,0.0002,120.15,,,,,,,
9979.41,0.00025,120.39,,,,,,,
9979.46,0.0003,120.02,,,,,,,
9979.51,0.00035,120.4,,,,,,,
9979.56,0.0004,120.64,,,,,,,
9979.61,0.00045,120.84,,,,,,,
9979.66,0.0005,120.91,,,,,,,
9979.71,0.00055,120.64,,,,,,,
9979.76,0.0006,120.83,,,,,,,
9979.8,0.00065,120.83,,,,,,,
9979.81,0.00065,120.95,,,,,,,
9979.86,0.00071,120.73,,,,,,,
9979.91,0.00076,120.46,,,,,,,
9979.96,0.00081,120.85,,,,,,,
9980.01,0.00086,120.36,,,,,,,
9980.06,0.00091,120.97,,,,,,,
9980.11,0.00096,120.42,,,,,,,
9980.16,0.00101,121.04,,,,,,,
9980.22,0.00106,121.01,,,,,,,
9980.26,0.00111,121.31,,,,,,,
9980.3,0.00115,121.47,,,,,,,
9980.32,0.00116,121.3,,,,,,,
9980.36,0.00121,121.68,,,,,,,
9980.41,0.00126,121.8,,,,,,,
9980.46,0.00131,121.23,,,,,,,
9980.51,0.00136,121.32,,,,,,,
9980.56,0.00141,120.87,,,,,,,
9980.62,0.00146,120.66,,,,,,,
9980.67,0.00152,120.45,,,,,,,
9980.73,0.00157,120.54,,,,,,,
9980.78,0.00162,120.79,,,,,,,
9980.8,0.00165,121.16,,,,,,,
9980.82,0.00167,121.22,,,,,,,
9980.87,0.00172,121.46,,,,,,,
9980.92,0.00177,121.7,,,,,,,
9980.97,0.00182,121.46,,,,,,,
9981.02,0.00187,121.77,,,,,,,
9981.07,0.00192,121.71,,,,,,,
9981.12,0.00197,121.38,,,,,,,
9981.18,0.00202,121.87,,,,,,,
9981.22,0.00207,121.86,,,,,,,
9981.28,0.00212,121.6,,,,,,,
9981.3,0.00215,122.19,,,,,,,
9981.33,0.00217,122.15,,,,,,,
9981.38,0.00222,122.22,,,,,,,
9981.43,0.00227,122.5,,,,,,,
9981.48,0.00233,123.1,,,,,,,
9981.53,0.00238,123.23,,,,,,,
9981.57,0.00243,123.64,,,,,,,
9981.62,0.00248,123.22,,,,,,,
9981.67,0.00253,123.35,,,,,,,
9981.73,0.00258,122.96,,,,,,,
9981.78,0.00263,122.91,,,,,,,
9981.8,0.00265,123.08,,,,,,,
9981.83,0.00268,122.52,,,,,,,
9981.88,0.00273,122.64,,,,,,,
9981.93,0.00278,122.94,,,,,,,
9981.98,0.00283,123.35,,,,,,,
9982.03,0.00288,123.73,,,,,,,
9982.08,0.00293,123.56,,,,,,,
9982.14,0.00298,123.8,,,,,,,
9982.18,0.00303,123.91,,,,,,,
9982.23,0.00308,124.02,,,,,,,
9982.28,0.00313,124.35,,,,,,,
9982.3,0.00316,124.3,,,,,,,
9982.33,0.00319,124.15,,,,,,,
9982.38,0.00324,123.8,,,,,,,
9982.43,0.00329,123.14,,,,,,,
9982.48,0.00334,122.99,,,,,,,
9982.54,0.00339,123.12,,,,,,,
9982.59,0.00344,123.57,,,,,,,
9982.64,0.00349,123.74,,,,,,,
9982.69,0.00354,124.16,,,,,,,
9982.74,0.00359,124.58,,,,,,,
9982.79,0.00364,124.44,,,,,,,
9982.8,0.00366,124.77,,,,,,,
9982.84,0.00369,124.43,,,,,,,
9982.89,0.00374,124.48,,,,,,,
9982.93,0.00379,124.42,,,,,,,
9982.98,0.00384,124.5,,,,,,,
9983.03,0.00389,124.18,,,,,,,
9983.09,0.00394,124.26,,,,,,,
9983.14,0.00399,124.14,,,,,,,
9983.19,0.00404,124.16,,,,,,,
9983.24,0.00409,123.94,,,,,,,
9983.29,0.00414,124.29,,,,,,,
9983.3,0.00416,124.43,,,,,,,
9983.33,0.0042,124.17,,,,,,,
9983.39,0.00425,123.96,,,,,,,
9983.43,0.0043,124.11,,,,,,,
9983.48,0.00435,124.06,,,,,,,
9983.54,0.0044,123.42,,,,,,,
9983.59,0.00445,123.8,,,,,,,
9983.64,0.0045,123.98,,,,,,,
9983.69,0.00455,123.7,,,,,,,
9983.74,0.0046,123.86,,,,,,,
9983.79,0.00465,123.85,,,,,,,
9983.8,0.00466,124.13,,,,,,,
9983.84,0.0047,124.03,,,,,,,
9983.89,0.00475,124.32,,,,,,,
9983.94,0.0048,124.5,,,,,,,
9984.0,0.00485,125.17,,,,,,,
9984.05,0.0049,125.37,,,,,,,
15986.75,0.00496,93.55,,,,,,,
15986.8,0.00502,92.88,,,,,,,
15986.91,0.00496,79.94,,,,,,,
15986.94,0.00491,74.73,,,,,,,
15986.97,0.00486,69.62,,,,,,,
15987.0,0.00481,65.19,,,,,,,
15987.03,0.00476,60.9,,,,,,,
15987.07,0.00471,57.69,,,,,,,
15987.12,0.00466,53.77,,,,,,,
15987.18,0.00461,50.55,,,,,,,
15987.25,0.00456,46.0,,,,,,,
15987.3,0.00451,42.65,,,,,,,
15987.31,0.00451,42.53,,,,,,,
15987.36,0.00446,38.67,,,,,,,
15987.41,0.00441,35.29,,,,,,,
15987.45,0.00436,31.49,,,,,,,
15987.5,0.00431,28.41,,,,,,,
15987.56,0.00426,25.22,,,,,,,
15987.61,0.00421,21.94,,,,,,,
15987.66,0.00416,18.98,,,,,,,
15987.71,0.00411,16.34,,,,,,,
15987.76,0.00405,13.12,,,,,,,
15987.8,0.00402,10.87,,,,,,,
15987.82,0.004,10.06,,,,,,,
15987.87,0.00395,7.22,,,,,,,
15987.92,0.0039,4.71,,,,,,,
15988.01,0.00385,3.07,,,,,,,
15988.1,0.0038,0.72,,,,,,,
15988.17,0.00375,-1.88,,,,,,,
15988.22,0.0037,-4.59,,,,,,,
15988.27,0.00365,-7.92,,,,,,,
15988.3,0.00362,-9.51,,,,,,,
15988.32,0.0036,-10.71,,,,,,,
15988.37,0.00355,-13.02,,,,,,,
15988.43,0.0035,-15.22,,,,,,,
15988.47,0.00345,-18.46,,,,,,,
15988.5,0.0034,-21.4,,,,,,,
15988.53,0.00335,-23.53,,,,,,,
15988.58,0.0033,-25.31,,,,,,,
15988.64,0.00325,-26.69,,,,,,,
15988.7,0.0032,-27.8,,,,,,,
15988.75,0.00315,-30.38,,,,,,,
15988.79,0.0031,-32.8,,,,,,,
15988.8,0.00307,-34.51,,,,,,,
15988.82,0.00305,-35.64,,,,,,,
15988.85,0.003,-38.21,,,,,,,
15988.88,0.00295,-40.36,,,,,,,
15988.91,0.0029,-42.08,,,,,,,
15988.95,0.00284,-43.42,,,,,,,
15989.0,0.00279,-44.17,,,,,,,
15989.05,0.00274,-44.65,,,,,,,
15989.11,0.00269,-44.93,,,,,,,
15989.17,0.00264,-46.27,,,,,,,
15989.21,0.00259,-47.51,,,,,,,
15989.26,0.00254,-48.4,,,,,,,
15989.3,0.0025,-49.76,,,,,,,
15989.31,0.00249,-50.22,,,,,,,
15989.36,0.00244,-50.89,,,,,,,
15989.41,0.00239,-51.74,,,,,,,
15989.46,0.00234,-52.28,,,,,,,
15989.51,0.00229,-53.32,,,,,,,
15989.56,0.00224,-54.75,,,,,,,
15989.61,0.00219,-55.71,,,,,,,
15989.66,0.00214,-56.26,,,,,,,
15989.71,0.00209,-57.22,,,,,,,
15989.76,0.00204,-57.97,,,,,,,
15989.8,0.00199,-58.78,,,,,,,
15989.81,0.00198,-58.97,,,,,,,
15989.86,0.00193,-60.12,,,,,,,
15989.91,0.00188,-60.4,,,,,,,
15989.96,0.00183,-61.19,,,,,,,
15990.02,0.00178,-61.44,,,,,,,
15990.07,0.00173,-61.86,,,,,,,
15990.12,0.00168,-62.91,,,,,,,
15990.16,0.00163,-63.35,,,,,,,
15990.22,0.00158,-63.65,,,,,,,
15990.27,0.00153,-64.25,,,,,,,
15990.3,0.00149,-64.59,,,,,,,
15990.31,0.00148,-64.93,,,,,,,
15990.36,0.00143,-65.26,,,,,,,
15990.41,0.00138,-65.68,,,,,,,
15990.47,0.00133,-66.29,,,,,,,
15990.52,0.00128,-66.49,,,,,,,
15990.57,0.00123,-66.8,,,,,,,
15990.62,0.00118,-67.62,,,,,,,
15990.67,0.00112,-68.25,,,,,,,
15990.72,0.00107,-68.36,,,,,,,
15990.77,0.00102,-68.53,,,,,,,
15990.8,0.00099,-68.65,,,,,,,
15990.81,0.00097,-68.52,,,,,,,
15990.87,0.00092,-68.43,,,,,,,
15990.92,0.00087,-69.01,,,,,,,
15990.97,0.00082,-69.02,,,,,,,
15991.02,0.00077,-69.43,,,,,,,
15991.08,0.00072,-70.0,,,,,,,
15991.12,0.00067,-69.99,,,,,,,
15991.18,0.00062,-70.84,,,,,,,
15991.22,0.00057,-71.28,,,,,,,
15991.27,0.00052,-71.77,,,,,,,
15991.3,0.00048,-71.32,,,,,,,
15991.32,0.00047,-70.97,,,,,,,
15991.37,0.00042,-71.56,,,,,,,
15991.42,0.00036,-71.38,,,,,,,
15991.48,0.00031,-71.42,,,,,,,
15991.53,0.00026,-71.78,,,,,,,
15991.58,0.00021,-71.81,,,,,,,
15991.63,0.00016,-72.38,,,,,,,
15991.68,0.00011,-72.9,,,,,,,
15991.73,6e-05,-73.19,,,,,,,
15991.77,1e-05,-73.4,,,,,,,
15991.8,-1e-05,-73.42,,,,,,,
15991.83,-4e-05,-73.45,,,,,,,
15991.88,-9e-05,-73.19,,,,,,,
15991.93,-0.00014,-73.54,,,,,,,
15991.98,-0.00019,-73.0,,,,,,,
15992.03,-0.00024,-73.44,,,,,,,
15992.09,-0.00029,-73.03,,,,,,,
15992.14,-0.00034,-73.68,,,,,,,
15992.19,-0.0004,-73.72,,,,,,,
15992.24,-0.00045,-74.56,,,,,,,
15992.29,-0.0005,-74.85,,,,,,,
15992.3,-0.00051,-74.63,,,,,,,
15992.34,-0.00055,-74.84,,,,,,,
15992.39,-0.0006,-75.07,,,,,,,
15992.44,-0.00065,-75.47,,,,,,,
15992.49,-0.0007,-75.52,,,,,,,
15992.54,-0.00075,-75.8,,,,,,,
15992.59,-0.0008,-75.87,,,,,,,
15992.64,-0.00085,-75.94,,,,,,,
15992.69,-0.0009,-76.12,,,,,,,
15992.74,-0.00095,-76.64,,,,,,,
15992.79,-0.001,-76.62,,,,,,,
15992.8,-0.00101,-76.67,,,,,,,
15992.84,-0.00105,-76.77,,,,,,,
15992.89,-0.0011,-76.66,,,,,,,
15992.94,-0.00115,-76.54,,,,,,,
15992.99,-0.0012,-76.18,,,,,,,
15993.04,-0.00125,-76.41,,,,,,,
15993.09,-0.00131,-76.48,,,,,,,
15993.14,-0.00136,-76.6,,,,,,,
15993.19,-0.00141,-76.45,,,,,,,
15993.24,-0.00146,-76.67,,,,,,,
15993.29,-0.00151,-77.0,,,,,,,
15993.3,-0.00151,-76.55,,,,,,,
15993.35,-0.00156,-76.89,,,,,,,
15993.4,-0.00161,-76.67,,,,,,,
15993.45,-0.00166,-76.87,,,,,,,
15993.5,-0.00171,-76.77,,,,,,,
15993.55,-0.00176,-76.86,,,,,,,
15993.59,-0.00181,-77.25,,,,,,,
15993.65,-0.00186,-77.5,,,,,,,
15993.7,-0.00191,-77.35,,,,,,,
15993.75,-0.00196,-77.26,,,,,,,
15993.8,-0.00201,-77.45,,,,,,,
15993.8,-0.00201,-77.28,,,,,,,
15993.85,-0.00206,-77.25,,,,,,,
15993.9,-0.00211,-77.91,,,,,,,
15993.95,-0.00216,-78.15,,,,,,,
15994.0,-0.00222,-78.37,,,,,,,
15994.05,-0.00227,-78.2,,,,,,,
15994.1,-0.00232,-78.51,,,,,,,
15994.15,-0.00237,-78.67,,,,,,,
15994.2,-0.00242,-78.85,,,,,,,
15994.25,-0.00247,-78.69,,,,,,,
15994.3,-0.00252,-78.8,,,,,,,
15994.3,-0.00252,-79.09,,,,,,,
15994.35,-0.00257,-78.96,,,,,,,
15994.41,-0.00262,-79.16,,,,,,,
15994.46,-0.00267,-79.23,,,,,,,
15994.51,-0.00272,-79.08,,,,,,,
15994.56,-0.00277,-79.39,,,,,,,
15994.61,-0.00282,-79.42,,,,,,,
15994.65,-0.00287,-79.88,,,,,,,
15994.71,-0.00292,-79.55,,,,,,,
15994.76,-0.00297,-79.55,,,,,,,
15994.8,-0.00302,-79.55,,,,,,,
15994.81,-0.00302,-79.69,,,,,,,
15994.86,-0.00307,-79.99,,,,,,,
15994.91,-0.00313,-80.36,,,,,,,
15994.96,-0.00318,-80.53,,,,,,,
15995.01,-0.00323,-80.08,,,,,,,
15995.06,-0.00328,-80.31,,,,,,,
15995.11,-0.00333,-80.91,,,,,,,
15995.16,-0.00338,-80.64,,,,,,,
15995.21,-0.00343,-81.29,,,,,,,
15995.26,-0.00348,-80.82,,,,,,,
15995.3,-0.00352,-80.96,,,,,,,
15995.31,-0.00353,-81.11,,,,,,,
15995.36,-0.00358,-80.77,,,,,,,
15995.41,-0.00363,-81.01,,,,,,,
15995.46,-0.00368,-80.63,,,,,,,
15995.52,-0.00373,-80.78,,,,,,,
15995.56,-0.00378,-81.01,,,,,,,
15995.62,-0.00383,-80.84,,,,,,,
15995.66,-0.00388,-81.22,,,,,,,
15995.72,-0.00393,-81.0,,,,,,,
15995.77,-0.00398,-81.8,,,,,,,
15995.8,-0.00401,-81.52,,,,,,,
15995.82,-0.00403,-81.66,,,,,,,
15995.87,-0.00408,-81.97,,,,,,,
15995.92,-0.00413,-81.99,,,,,,,
15995.96,-0.00419,-82.31,,,,,,,
15996.01,-0.00424,-82.32,,,,,,,
15996.06,-0.00429,-82.39,,,,,,,
15996.12,-0.00434,-81.98,,,,,,,
15996.18,-0.00439,-82.4,,,,,,,
15996.23,-0.00444,-82.36,,,,,,,
15996.29,-0.00449,-83.06,,,,,,,
15996.3,-0.00451,-83.26,,,,,,,
15996.34,-0.00454,-84.3,,,,,,,
15996.38,-0.00459,-84.93,,,,,,,
15996.44,-0.00464,-85.53,,,,,,,
15996.49,-0.00469,-87.23,,,,,,,
15996.54,-0.00474,-87.65,,,,,,,
15996.59,-0.00479,-89.3,,,,,,,
15996.64,-0.00484,-90.53,,,,,,,
15996.7,-0.00489,-91.38,,,,,,,
15996.76,-0.00494,-93.44,,,,,,,
15996.8,-0.00499,-93.72,,,,,,,
15996.81,-0.00499,-94.06,,,,,,,
15996.94,-0.00494,-78.02,,,,,,,
15996.98,-0.00489,-71.08,,,,,,,
15997.01,-0.00484,-64.31,,,,,,,
15997.05,-0.00479,-57.66,,,,,,,
15997.09,-0.00474,-51.83,,,,,,,
15997.12,-0.00469,-47.28,,,,,,,
15997.17,-0.00464,-41.94,,,,,,,
15997.22,-0.00459,-37.33,,,,,,,
15997.27,-0.00454,-33.19,,,,,,,
15997.3,-0.00451,-30.61,,,,,,,
15997.32,-0.00449,-29.25,,,,,,,
15997.38,-0.00444,-25.36,,,,,,,
15997.43,-0.00439,-21.54,,,,,,,
15997.47,-0.00433,-18.51,,,,,,,
15997.53,-0.00428,-14.82,,,,,,,
15997.58,-0.00423,-11.4,,,,,,,
15997.63,-0.00418,-8.09,,,,,,,
15997.68,-0.00413,-5.09,,,,,,,
15997.73,-0.00408,-2.1,,,,,,,
15997.79,-0.00403,1.1,,,,,,,
15997.8,-0.00402,2.15,,,,,,,
15997.84,-0.00398,4.33,,,,,,,
15997.89,-0.00393,6.8,,,,,,,
15997.95,-0.00388,9.72,,,,,,,
15998.0,-0.00383,12.92,,,,,,,
15998.05,-0.00378,15.98,,,,,,,
15998.1,-0.00373,18.23,,,,,,,
15998.15,-0.00368,20.93,,,,,,,
15998.2,-0.00363,23.33,,,,,,,
15998.25,-0.00358,25.87,,,,,,,
15998.3,-0.00353,28.02,,,,,,,
15998.31,-0.00353,28.3,,,,,,,
15998.38,-0.00348,29.49,,,,,,,
15998.46,-0.00343,31.18,,,,,,,
15998.53,-0.00337,32.99,,,,,,,
15998.59,-0.00332,35.38,,,,,,,
15998.64,-0.00327,38.08,,,,,,,
15998.68,-0.00322,40.91,,,,,,,
15998.71,-0.00317,43.37,,,,,,,
15998.74,-0.00312,46.44,,,,,,,
15998.78,-0.00307,48.28,,,,,,,
15998.8,-0.00304,49.4,,,,,,,
15998.82,-0.00302,49.62,,,,,,,
15998.88,-0.00297,50.16,,,,,,,
15998.95,-0.00292,51.3,,,,,,,
15999.01,-0.00287,52.38,,,,,,,
15999.06,-0.00282,53.93,,,,,,,
15999.11,-0.00277,55.35,,,,,,,
15999.16,-0.00272,56.72,,,,,,,
15999.21,-0.00267,58.18,,,,,,,
15999.27,-0.00262,59.81,,,,,,,
15999.3,-0.00259,60.63,,,,,,,
15999.32,-0.00257,60.96,,,,,,,
15999.37,-0.00252,62.39,,,,,,,
15999.41,-0.00247,63.82,,,,,,,
15999.46,-0.00242,65.51,,,,,,,
15999.49,-0.00237,67.69,,,,,,,
15999.52,-0.00231,69.33,,,,,,,
15999.56,-0.00226,70.77,,,,,,,
15999.6,-0.00221,71.44,,,,,,,
15999.64,-0.00216,71.86,,,,,,,
15999.69,-0.00211,72.44,,,,,,,
15999.74,-0.00206,71.97,,,,,,,
15999.79,-0.00201,72.39,,,,,,,
15999.8,-0.002,72.56,,,,,,,
15999.85,-0.00196,72.59,,,,,,,
15999.9,-0.00191,73.15,,,,,,,
15999.95,-0.00186,73.91,,,,,,,
16000.0,-0.00181,74.29,,,,,,,
16000.04,-0.00176,74.94,,,,,,,
16000.09,-0.00171,75.55,,,,,,,
16000.14,-0.00166,75.9,,,,,,,
16000.19,-0.00161,76.29,,,,,,,
16000.24,-0.00156,76.48,,,,,,,
16000.29,-0.00151,76.59,,,,,,,
16000.3,-0.0015,76.98,,,,,,,
16000.34,-0.00146,76.97,,,,,,,
16000.39,-0.00141,76.99,,,,,,,
16000.45,-0.00136,77.93,,,,,,,
16000.5,-0.0013,77.96,,,,,,,
16000.55,-0.00125,78.59,,,,,,,
16000.6,-0.0012,79.05,,,,,,,
16000.65,-0.00115,79.17,,,,,,,
16000.7,-0.0011,79.8,,,,,,,
16000.75,-0.00105,79.86,,,,,,,
16000.8,-0.001,80.15,,,,,,,
16000.8,-0.001,80.63,,,,,,,
16000.84,-0.00095,80.62,,,,,,,
16000.9,-0.0009,80.38,,,,,,,
16000.95,-0.00085,80.69,,,,,,,
16001.0,-0.0008,80.68,,,,,,,
16001.05,-0.00075,81.22,,,,,,,
16001.1,-0.0007,81.31,,,,,,,
16001.15,-0.00065,81.23,,,,,,,
16001.2,-0.0006,81.51,,,,,,,
16001.25,-0.00055,82.14,,,,,,,
16001.3,-0.00049,82.38,,,,,,,
16001.3,-0.00049,82.64,,,,,,,
16001.35,-0.00044,82.5,,,,,,,
16001.4,-0.00039,82.4,,,,,,,
16001.45,-0.00034,82.8,,,,,,,
16001.5,-0.00029,83.01,,,,,,,
16001.55,-0.00024,83.52,,,,,,,
16001.6,-0.00019,83.88,,,,,,,
16001.65,-0.00014,84.09,,,,,,,
16001.71,-9e-05,84.02,,,,,,,
16001.75,-4e-05,84.08,,,,,,,
16001.8,1e-05,84.57,,,,,,,
16001.81,1e-05,84.5,,,,,,,
16001.86,6e-05,84.19,,,,,,,
16001.91,0.00011,84.59,,,,,,,
16001.96,0.00016,84.31,,,,,,,
16002.01,0.00021,84.31,,,,,,,
16002.06,0.00026,84.88,,,,,,,
16002.11,0.00031,85.04,,,,,,,
16002.16,0.00036,84.92,,,,,,,
16002.21,0.00041,85.55,,,,,,,
16002.26,0.00047,85.67,,,,,,,
16002.3,0.00051,86.05,,,,,,,
16002.31,0.00052,85.36,,,,,,,
16002.36,0.00057,85.49,,,,,,,
16002.42,0.00062,86.08,,,,,,,
16002.46,0.00067,85.95,,,,,,,
16002.51,0.00072,86.16,,,,,,,
16002.56,0.00077,86.13,,,,,,,
16002.61,0.00082,86.31,,,,,,,
16002.66,0.00087,86.63,,,,,,,
16002.71,0.00092,86.35,,,,,,,
16002.76,0.00097,86.29,,,,,,,
16002.8,0.00101,86.7,,,,,,,
16002.82,0.00102,86.19,,,,,,,
16002.87,0.00107,86.65,,,,,,,
16002.92,0.00112,86.79,,,,,,,
16002.97,0.00117,86.58,,,,,,,
16003.02,0.00123,86.8,,,,,,,
16003.07,0.00128,86.78,,,,,,,
16003.12,0.00133,87.22,,,,,,,
16003.17,0.00138,87.27,,,,,,,
16003.22,0.00143,87.83,,,,,,,
16003.27,0.00148,88.05,,,,,,,
16003.3,0.00151,88.47,,,,,,,
16003.32,0.00153,87.89,,,,,,,
16003.37,0.00158,87.88,,,,,,,
16003.42,0.00163,88.26,,,,,,,
16003.47,0.00168,88.2,,,,,,,
16003.52,0.00173,88.08,,,,,,,
16003.57,0.00178,88.61,,,,,,,
16003.62,0.00183,87.96,,,,,,,
16003.67,0.00188,88.05,,,,,,,
16003.72,0.00193,88.28,,,,,,,
16003.77,0.00198,88.18,,,,,,,
16003.8,0.00201,88.72,,,,,,,
16003.82,0.00203,88.4,,,,,,,
16003.87,0.00208,88.54,,,,,,,
16003.92,0.00213,88.31,,,,,,,
16003.97,0.00218,88.18,,,,,,,
16004.02,0.00223,88.42,,,,,,,
16004.07,0.00228,88.72,,,,,,,
16004.12,0.00233,88.51,,,,,,,
16004.17,0.00238,88.72,,,,,,,
16004.23,0.00243,88.58,,,,,,,
16004.28,0.00249,89.32,,,,,,,
16004.3,0.00251,89.54,,,,,,,
16004.33,0.00254,89.5,,,,,,,
16004.37,0.00259,89.36,,,,,,,
16004.42,0.00264,89.63,,,,,,,
16004.47,0.00269,89.37,,,,,,,
16004.52,0.00274,89.41,,,,,,,
16004.57,0.00279,89.14,,,,,,,
16004.62,0.00284,89.26,,,,,,,
16004.68,0.00289,89.17,,,,,,,
16004.73,0.00294,89.33,,,,,,,
16004.78,0.00299,89.26,,,,,,,
16004.8,0.00301,89.83,,,,,,,
16004.83,0.00304,89.68,,,,,,,
16004.88,0.00309,89.28,,,,,,,
16004.93,0.00314,89.99,,,,,,,
16004.98,0.00319,90.16,,,,,,,
16005.03,0.00324,90.12,,,,,,,
16005.08,0.00329,89.98,,,,,,,
16005.13,0.00334,90.32,,,,,,,
16005.18,0.00339,90.47,,,,,,,
16005.23,0.00344,90.54,,,,,,,
16005.28,0.0035,90.29,,,,,,,
16005.3,0.00351,90.92,,,,,,,
16005.33,0.00355,90.79,,,,,,,
16005.38,0.0036,90.54,,,,,,,
16005.43,0.00365,90.61,,,,,,,
16005.48,0.0037,90.85,,,,,,,
16005.53,0.00375,91.0,,,,,,,
16005.58,0.0038,91.18,,,,,,,
16005.64,0.00385,91.09,,,,,,,
16005.69,0.0039,91.08,,,,,,,
16005.74,0.00395,91.59,,,,,,,
16005.79,0.004,91.81,,,,,,,
16005.8,0.00401,92.13,,,,,,,
16005.84,0.00405,91.91,,,,,,,
16005.89,0.0041,92.2,,,,,,,
16005.94,0.00415,92.06,,,,,,,
16005.99,0.0042,92.14,,,,,,,
16006.03,0.00425,92.62,,,,,,,
16006.09,0.0043,92.54,,,,,,,
16006.14,0.00435,92.14,,,,,,,
16006.19,0.00441,92.04,,,,,,,
16006.24,0.00446,92.14,,,,,,,
16006.29,0.00451,92.3,,,,,,,
16006.3,0.00452,92.56,,,,,,,
16006.34,0.00456,92.06,,,,,,,
16006.39,0.00461,92.1,,,,,,,
16006.45,0.00466,92.25,,,,,,,
16006.5,0.00471,92.3,,,,,,,
16006.55,0.00476,92.97,,,,,,,
16006.6,0.00481,92.95,,,,,,,
16006.65,0.00486,93.22,,,,,,,
16006.7,0.00491,93.16,,,,,,,
