time,strain,stress,temperature,type,strain_rate,max_strain,title,youngs,poissons
0.0,5e-05,9.25,950,fatigue,0.001,0.00504,E-12,144000,0.3
0.06,0.0001,16.95,,,,,,,
0.1,0.00015,23.24,,,,,,,
0.17,0.0002,29.45,,,,,,,
0.26,0.00025,37.1,,,,,,,
0.3,0.00027,39.31,,,,,,,
0.36,0.0003,44.09,,,,,,,
0.4,0.00036,51.81,,,,,,,
0.44,0.00041,59.96,,,,,,,
0.47,0.00046,65.55,,,,,,,
0.53,0.00051,72.64,,,,,,,
0.58,0.00056,78.41,,,,,,,
0.66,0.00061,85.21,,,,,,,
0.73,0.00066,92.17,,,,,,,
0.8,0.00071,98.85,,,,,,,
0.8,0.00072,99.54,,,,,,,
0.85,0.00076,105.22,,,,,,,
0.89,0.00081,112.15,,,,,,,
0.92,0.00086,118.45,,,,,,,
0.96,0.00091,125.23,,,,,,,
0.99,0.00096,132.02,,,,,,,
1.03,0.00101,138.27,,,,,,,
1.07,0.00106,144.09,,,,,,,
1.11,0.00112,150.57,,,,,,,
1.15,0.00117,155.29,,,,,,,
1.18,0.00122,159.58,,,,,,,
1.22,0.00127,162.24,,,,,,,
1.24,0.00132,163.27,,,,,,,
1.25,0.00137,164.15,,,,,,,
1.27,0.00142,164.51,,,,,,,
1.3,0.00147,164.8,,,,,,,
1.3,0.00148,164.87,,,,,,,
1.39,0.00152,161.58,,,,,,,
1.52,0.00157,160.07,,,,,,,
1.57,0.00162,162.98,,,,,,,
1.62,0.00167,166.15,,,,,,,
1.66,0.00173,169.17,,,,,,,
1.7,0.00178,171.82,,,,,,,
1.74,0.00183,173.35,,,,,,,
1.76,0.00188,173.92,,,,,,,
1.78,0.00193,173.92,,,,,,,
1.79,0.00198,173.16,,,,,,,
1.8,0.00202,172.64,,,,,,,
1.8,0.00203,172.45,,,,,,,
1.82,0.00209,171.82,,,,,,,
2.08,0.00214,147.29,,,,,,,
2.14,0.00219,150.11,,,,,,,
2.18,0.00224,153.16,,,,,,,
2.22,0.00229,156.1,,,,,,,
2.26,0.00234,158.66,,,,,,,
2.3,0.00239,160.6,,,,,,,
2.3,0.00239,160.7,,,,,,,
2.34,0.00244,161.84,,,,,,,
2.39,0.00249,162.79,,,,,,,
2.43,0.00254,163.08,,,,,,,
2.48,0.00259,163.24,,,,,,,
2.53,0.00264,163.1,,,,,,,
2.57,0.00269,162.4,,,,,,,
2.62,0.00274,161.91,,,,,,,
2.67,0.00279,161.33,,,,,,,
2.73,0.00284,160.7,,,,,,,
2.77,0.00289,159.86,,,,,,,
2.8,0.00292,159.45,,,,,,,
2.82,0.00295,158.93,,,,,,,
2.88,0.003,158.26,,,,,,,
2.93,0.00305,157.56,,,,,,,
2.98,0.0031,156.85,,,,,,,
3.03,0.00315,156.35,,,,,,,
3.07,0.0032,155.47,,,,,,,
3.12,0.00325,154.75,,,,,,,
3.17,0.0033,154.08,,,,,,,
3.22,0.00335,153.41,,,,,,,
3.27,0.0034,152.72,,,,,,,
3.3,0.00343,152.16,,,,,,,
3.31,0.00345,151.86,,,,,,,
3.36,0.0035,150.85,,,,,,,
3.42,0.00355,149.71,,,,,,,
3.47,0.0036,148.56,,,,,,,
3.53,0.00365,147.95,,,,,,,
3.58,0.0037,147.28,,,,,,,
3.63,0.00375,146.82,,,,,,,
3.68,0.0038,146.69,,,,,,,
3.73,0.00385,146.45,,,,,,,
3.78,0.0039,146.38,,,,,,,
3.8,0.00392,146.43,,,,,,,
3.83,0.00395,146.35,,,,,,,
3.88,0.004,146.1,,,,,,,
3.92,0.00405,145.82,,,,,,,
3.98,0.0041,145.35,,,,,,,
4.03,0.00416,145.01,,,,,,,
4.08,0.00421,144.64,,,,,,,
4.13,0.00426,144.52,,,,,,,
4.18,0.00431,144.27,,,,,,,
4.23,0.00436,144.15,,,,,,,
4.28,0.00441,143.38,,,,,,,
4.3,0.00442,142.69,,,,,,,
4.46,0.00436,115.1,,,,,,,
4.49,0.00431,106.56,,,,,,,
4.52,0.00425,97.97,,,,,,,
4.56,0.0042,90.88,,,,,,,
4.6,0.00415,83.04,,,,,,,
4.64,0.0041,75.33,,,,,,,
4.69,0.00405,69.0,,,,,,,
4.75,0.004,60.71,,,,,,,
4.8,0.00395,54.6,,,,,,,
4.8,0.00395,54.46,,,,,,,
4.86,0.0039,47.66,,,,,,,
4.91,0.00385,40.65,,,,,,,
4.97,0.0038,33.28,,,,,,,
5.02,0.00375,27.76,,,,,,,
5.08,0.0037,20.43,,,,,,,
5.13,0.00365,14.9,,,,,,,
5.19,0.0036,7.78,,,,,,,
5.24,0.00354,2.26,,,,,,,
5.29,0.00349,-3.18,,,,,,,
5.3,0.00349,-4.43,,,,,,,
5.36,0.00344,-8.02,,,,,,,
5.48,0.00339,-12.32,,,,,,,
5.57,0.00334,-19.22,,,,,,,
5.62,0.00329,-24.88,,,,,,,
5.67,0.00324,-31.65,,,,,,,
5.7,0.00319,-37.15,,,,,,,
5.73,0.00314,-41.68,,,,,,,
5.78,0.00309,-47.52,,,,,,,
5.8,0.00307,-49.09,,,,,,,
5.84,0.00304,-51.95,,,,,,,
5.89,0.00299,-56.23,,,,,,,
5.95,0.00294,-61.58,,,,,,,
5.98,0.00288,-66.5,,,,,,,
6.02,0.00283,-72.6,,,,,,,
6.04,0.00278,-77.19,,,,,,,
6.08,0.00273,-82.25,,,,,,,
6.11,0.00268,-86.29,,,,,,,
6.14,0.00263,-90.2,,,,,,,
6.17,0.00258,-93.51,,,,,,,
6.22,0.00253,-96.85,,,,,,,
6.26,0.00247,-99.15,,,,,,,
6.3,0.00243,-101.13,,,,,,,
6.3,0.00242,-101.31,,,,,,,
6.36,0.00237,-103.66,,,,,,,
6.41,0.00232,-105.0,,,,,,,
6.47,0.00227,-107.2,,,,,,,
6.51,0.00222,-108.77,,,,,,,
6.56,0.00217,-110.47,,,,,,,
6.62,0.00212,-112.26,,,,,,,
6.66,0.00207,-113.91,,,,,,,
6.72,0.00201,-115.37,,,,,,,
6.76,0.00196,-116.55,,,,,,,
6.8,0.00193,-117.76,,,,,,,
6.82,0.00191,-118.23,,,,,,,
6.86,0.00186,-119.44,,,,,,,
6.91,0.00181,-120.43,,,,,,,
6.96,0.00176,-121.34,,,,,,,
7.02,0.00171,-122.32,,,,,,,
7.06,0.00166,-123.41,,,,,,,
7.1,0.00161,-124.05,,,,,,,
7.16,0.00156,-124.6,,,,,,,
7.21,0.00151,-125.31,,,,,,,
7.26,0.00146,-125.89,,,,,,,
7.3,0.00142,-126.3,,,,,,,
7.31,0.00141,-126.43,,,,,,,
7.36,0.00136,-126.74,,,,,,,
7.41,0.00131,-127.32,,,,,,,
7.46,0.00126,-127.71,,,,,,,
7.51,0.00121,-128.14,,,,,,,
7.57,0.00115,-128.7,,,,,,,
7.62,0.0011,-129.07,,,,,,,
7.66,0.00105,-129.58,,,,,,,
7.71,0.001,-130.06,,,,,,,
7.76,0.00095,-130.59,,,,,,,
7.8,0.00092,-130.72,,,,,,,
7.82,0.0009,-130.57,,,,,,,
7.87,0.00085,-130.76,,,,,,,
7.91,0.0008,-130.91,,,,,,,
7.96,0.00075,-130.69,,,,,,,
8.02,0.0007,-130.67,,,,,,,
8.07,0.00065,-130.52,,,,,,,
8.12,0.0006,-130.77,,,,,,,
8.17,0.00055,-130.83,,,,,,,
8.22,0.00049,-131.13,,,,,,,
8.27,0.00044,-131.39,,,,,,,
8.3,0.00042,-131.38,,,,,,,
8.31,0.00039,-131.32,,,,,,,
8.37,0.00034,-131.27,,,,,,,
8.42,0.00029,-131.73,,,,,,,
8.47,0.00024,-131.94,,,,,,,
8.53,0.00019,-131.92,,,,,,,
8.57,0.00014,-132.25,,,,,,,
8.62,9e-05,-132.16,,,,,,,
8.66,4e-05,-132.29,,,,,,,
8.72,-1e-05,-132.09,,,,,,,
8.77,-6e-05,-131.79,,,,,,,
8.8,-9e-05,-131.86,,,,,,,
8.82,-0.00012,-131.96,,,,,,,
8.87,-0.00017,-132.03,,,,,,,
8.93,-0.00022,-132.03,,,,,,,
8.98,-0.00027,-132.38,,,,,,,
9.03,-0.00032,-132.4,,,,,,,
9.08,-0.00037,-132.31,,,,,,,
9.13,-0.00042,-132.29,,,,,,,
9.18,-0.00047,-132.34,,,,,,,
9.23,-0.00053,-132.41,,,,,,,
9.28,-0.00058,-132.38,,,,,,,
9.3,-0.00059,-132.46,,,,,,,
9.34,-0.00063,-132.5,,,,,,,
9.38,-0.00068,-132.65,,,,,,,
9.43,-0.00073,-132.73,,,,,,,
9.49,-0.00078,-132.88,,,,,,,
9.53,-0.00083,-133.0,,,,,,,
9.6,-0.00088,-133.12,,,,,,,
9.64,-0.00093,-133.31,,,,,,,
9.69,-0.00098,-133.5,,,,,,,
9.73,-0.00103,-133.38,,,,,,,
9.79,-0.00108,-133.34,,,,,,,
9.8,-0.0011,-133.45,,,,,,,
9.84,-0.00113,-133.46,,,,,,,
9.89,-0.00118,-133.49,,,,,,,
9.93,-0.00123,-133.38,,,,,,,
9.98,-0.00128,-133.32,,,,,,,
10.04,-0.00133,-133.02,,,,,,,
10.09,-0.00138,-133.13,,,,,,,
10.15,-0.00144,-133.28,,,,,,,
10.19,-0.00149,-133.73,,,,,,,
10.24,-0.00154,-134.09,,,,,,,
10.3,-0.00159,-134.11,,,,,,,
10.3,-0.00159,-133.91,,,,,,,
10.34,-0.00164,-134.11,,,,,,,
10.4,-0.00169,-134.03,,,,,,,
10.44,-0.00174,-134.06,,,,,,,
10.49,-0.00179,-133.97,,,,,,,
10.55,-0.00184,-133.94,,,,,,,
10.6,-0.00189,-134.04,,,,,,,
10.64,-0.00194,-134.01,,,,,,,
10.69,-0.00199,-133.98,,,,,,,
10.75,-0.00205,-134.05,,,,,,,
10.8,-0.0021,-134.05,,,,,,,
10.8,-0.0021,-133.91,,,,,,,
10.85,-0.00215,-133.83,,,,,,,
10.9,-0.0022,-134.02,,,,,,,
10.95,-0.00225,-134.21,,,,,,,
11.0,-0.0023,-134.42,,,,,,,
11.06,-0.00235,-134.84,,,,,,,
11.1,-0.0024,-134.95,,,,,,,
11.16,-0.00245,-135.49,,,,,,,
11.2,-0.0025,-135.61,,,,,,,
11.25,-0.00255,-135.76,,,,,,,
11.3,-0.0026,-135.75,,,,,,,
11.3,-0.0026,-135.81,,,,,,,
11.36,-0.00265,-135.97,,,,,,,
11.4,-0.0027,-135.99,,,,,,,
11.45,-0.00275,-135.82,,,,,,,
11.5,-0.0028,-135.94,,,,,,,
11.55,-0.00286,-135.69,,,,,,,
11.6,-0.00291,-135.56,,,,,,,
11.65,-0.00296,-135.34,,,,,,,
11.7,-0.00301,-135.17,,,,,,,
11.76,-0.00306,-135.07,,,,,,,
11.8,-0.0031,-134.94,,,,,,,
11.81,-0.00311,-135.04,,,,,,,
11.85,-0.00316,-135.15,,,,,,,
11.91,-0.00321,-135.01,,,,,,,
11.96,-0.00326,-135.28,,,,,,,
12.01,-0.00331,-135.47,,,,,,,
12.06,-0.00336,-135.53,,,,,,,
12.11,-0.00341,-135.86,,,,,,,
12.16,-0.00346,-135.92,,,,,,,
12.21,-0.00351,-135.82,,,,,,,
12.26,-0.00357,-135.84,,,,,,,
12.3,-0.00361,-135.81,,,,,,,
12.31,-0.00362,-135.87,,,,,,,
12.36,-0.00367,-135.68,,,,,,,
12.42,-0.00372,-135.7,,,,,,,
12.46,-0.00377,-135.65,,,,,,,
12.52,-0.00382,-135.52,,,,,,,
12.57,-0.00387,-135.54,,,,,,,
12.62,-0.00392,-135.77,,,,,,,
12.67,-0.00397,-135.77,,,,,,,
12.72,-0.00402,-135.62,,,,,,,
12.77,-0.00407,-135.71,,,,,,,
12.8,-0.00411,-135.62,,,,,,,
12.82,-0.00412,-135.73,,,,,,,
12.87,-0.00418,-135.92,,,,,,,
12.92,-0.00423,-136.07,,,,,,,
12.97,-0.00428,-136.2,,,,,,,
13.02,-0.00433,-136.28,,,,,,,
13.07,-0.00438,-136.1,,,,,,,
13.15,-0.00443,-130.57,,,,,,,
13.21,-0.00438,-117.61,,,,,,,
13.26,-0.00433,-106.2,,,,,,,
13.29,-0.00428,-98.07,,,,,,,
13.3,-0.00427,-95.13,,,,,,,
13.33,-0.00422,-89.14,,,,,,,
13.36,-0.00417,-82.35,,,,,,,
13.4,-0.00412,-74.26,,,,,,,
13.44,-0.00407,-68.52,,,,,,,
13.49,-0.00402,-60.79,,,,,,,
13.55,-0.00397,-53.66,,,,,,,
13.6,-0.00392,-47.31,,,,,,,
13.66,-0.00387,-40.73,,,,,,,
13.72,-0.00382,-34.17,,,,,,,
13.77,-0.00377,-27.69,,,,,,,
13.8,-0.00374,-24.06,,,,,,,
13.82,-0.00372,-21.34,,,,,,,
13.88,-0.00367,-15.24,,,,,,,
13.93,-0.00362,-8.94,,,,,,,
13.98,-0.00357,-3.31,,,,,,,
14.04,-0.00351,3.13,,,,,,,
14.09,-0.00346,8.14,,,,,,,
14.14,-0.00341,13.68,,,,,,,
14.2,-0.00336,19.56,,,,,,,
14.25,-0.00331,24.45,,,,,,,
14.3,-0.00326,29.44,,,,,,,
14.3,-0.00326,29.42,,,,,,,
14.37,-0.00321,33.3,,,,,,,
14.45,-0.00316,37.12,,,,,,,
14.55,-0.00311,41.36,,,,,,,
14.61,-0.00306,47.59,,,,,,,
14.64,-0.00301,53.54,,,,,,,
14.68,-0.00296,58.92,,,,,,,
14.71,-0.00291,62.88,,,,,,,
14.76,-0.00286,67.62,,,,,,,
14.8,-0.00282,70.27,,,,,,,
14.82,-0.00281,71.02,,,,,,,
14.88,-0.00276,74.34,,,,,,,
14.94,-0.00271,77.92,,,,,,,
15.0,-0.00266,81.64,,,,,,,
15.06,-0.00261,85.37,,,,,,,
15.11,-0.00255,89.5,,,,,,,
15.16,-0.0025,94.14,,,,,,,
15.19,-0.00245,98.63,,,,,,,
15.22,-0.0024,102.7,,,,,,,
15.26,-0.00235,107.26,,,,,,,
15.29,-0.0023,111.04,,,,,,,
15.3,-0.00228,112.41,,,,,,,
15.32,-0.00225,114.49,,,,,,,
15.36,-0.0022,117.14,,,,,,,
15.39,-0.00215,119.55,,,,,,,
15.44,-0.0021,121.7,,,,,,,
15.48,-0.00205,123.22,,,,,,,
15.52,-0.002,124.28,,,,,,,
15.57,-0.00195,125.19,,,,,,,
15.62,-0.0019,125.73,,,,,,,
15.67,-0.00185,126.21,,,,,,,
15.72,-0.0018,126.68,,,,,,,
15.77,-0.00174,127.2,,,,,,,
15.8,-0.00171,127.73,,,,,,,
15.82,-0.00169,127.9,,,,,,,
15.87,-0.00164,128.43,,,,,,,
15.92,-0.00159,128.87,,,,,,,
15.97,-0.00154,129.3,,,,,,,
16.02,-0.00149,129.46,,,,,,,
16.07,-0.00144,129.91,,,,,,,
16.12,-0.00139,130.49,,,,,,,
16.17,-0.00134,130.75,,,,,,,
16.22,-0.00129,131.02,,,,,,,
16.27,-0.00124,131.31,,,,,,,
16.3,-0.00121,131.67,,,,,,,
16.32,-0.00119,131.59,,,,,,,
16.37,-0.00114,131.72,,,,,,,
16.42,-0.00109,131.93,,,,,,,
16.47,-0.00103,132.02,,,,,,,
16.52,-0.00098,131.97,,,,,,,
16.57,-0.00093,131.86,,,,,,,
16.62,-0.00088,131.85,,,,,,,
16.67,-0.00083,132.04,,,,,,,
16.72,-0.00078,131.91,,,,,,,
16.77,-0.00073,131.88,,,,,,,
16.8,-0.0007,131.95,,,,,,,
16.83,-0.00068,132.14,,,,,,,
16.88,-0.00063,132.21,,,,,,,
16.93,-0.00058,132.14,,,,,,,
16.98,-0.00053,132.38,,,,,,,
17.03,-0.00048,132.36,,,,,,,
17.08,-0.00043,132.4,,,,,,,
17.13,-0.00038,132.43,,,,,,,
17.18,-0.00033,132.44,,,,,,,
17.23,-0.00028,132.35,,,,,,,
17.27,-0.00023,132.24,,,,,,,
17.3,-0.0002,132.34,,,,,,,
17.32,-0.00017,132.35,,,,,,,
17.37,-0.00012,132.2,,,,,,,
17.43,-7e-05,131.94,,,,,,,
17.48,-2e-05,131.9,,,,,,,
17.53,3e-05,131.51,,,,,,,
17.58,8e-05,131.2,,,,,,,
17.64,0.00013,131.05,,,,,,,
17.69,0.00018,131.14,,,,,,,
17.74,0.00023,131.28,,,,,,,
17.79,0.00028,131.59,,,,,,,
17.8,0.00029,131.71,,,,,,,
17.84,0.00033,131.94,,,,,,,
17.89,0.00038,132.23,,,,,,,
17.94,0.00043,132.73,,,,,,,
17.99,0.00048,132.92,,,,,,,
18.04,0.00053,133.32,,,,,,,
18.09,0.00058,133.31,,,,,,,
18.14,0.00063,133.39,,,,,,,
18.19,0.00068,133.41,,,,,,,
18.24,0.00073,133.43,,,,,,,
18.29,0.00079,133.31,,,,,,,
18.3,0.0008,133.48,,,,,,,
18.34,0.00084,133.31,,,,,,,
18.39,0.00089,133.22,,,,,,,
18.44,0.00094,132.98,,,,,,,
18.49,0.00099,133.06,,,,,,,
18.54,0.00104,133.26,,,,,,,
18.59,0.00109,133.2,,,,,,,
18.64,0.00114,132.92,,,,,,,
18.69,0.00119,132.96,,,,,,,
18.74,0.00124,132.79,,,,,,,
18.79,0.00129,132.76,,,,,,,
18.8,0.0013,132.92,,,,,,,
18.85,0.00134,132.64,,,,,,,
18.9,0.00139,132.65,,,,,,,
18.95,0.00144,133.04,,,,,,,
19.0,0.00149,133.15,,,,,,,
19.05,0.00154,133.29,,,,,,,
19.09,0.00159,133.39,,,,,,,
19.15,0.00164,133.32,,,,,,,
19.2,0.00169,133.37,,,,,,,
19.24,0.00175,133.48,,,,,,,
19.3,0.0018,133.5,,,,,,,
19.3,0.0018,133.51,,,,,,,
19.35,0.00185,133.43,,,,,,,
19.4,0.0019,133.64,,,,,,,
19.45,0.00195,133.92,,,,,,,
19.5,0.002,134.38,,,,,,,
19.55,0.00205,134.75,,,,,,,
19.6,0.0021,134.85,,,,,,,
19.65,0.00215,135.21,,,,,,,
19.7,0.0022,135.15,,,,,,,
19.75,0.00225,135.27,,,,,,,
19.8,0.0023,135.29,,,,,,,
19.8,0.0023,135.2,,,,,,,
19.85,0.00235,135.3,,,,,,,
19.9,0.0024,135.18,,,,,,,
19.96,0.00245,135.22,,,,,,,
20.01,0.00251,135.4,,,,,,,
20.06,0.00256,135.73,,,,,,,
20.1,0.00261,135.72,,,,,,,
20.15,0.00266,135.89,,,,,,,
20.2,0.00271,135.94,,,,,,,
20.25,0.00276,135.72,,,,,,,
20.3,0.0028,135.74,,,,,,,
20.31,0.00281,135.82,,,,,,,
20.36,0.00286,135.71,,,,,,,
20.41,0.00291,135.51,,,,,,,
20.46,0.00296,135.49,,,,,,,
20.51,0.00301,135.27,,,,,,,
20.56,0.00306,135.44,,,,,,,
20.61,0.00311,135.3,,,,,,,
20.66,0.00316,135.44,,,,,,,
20.71,0.00321,135.6,,,,,,,
20.76,0.00326,135.57,,,,,,,
20.8,0.00331,135.68,,,,,,,
20.81,0.00332,135.66,,,,,,,
20.87,0.00337,135.75,,,,,,,
20.92,0.00342,135.97,,,,,,,
20.97,0.00347,135.97,,,,,,,
21.02,0.00352,136.13,,,,,,,
21.07,0.00357,136.42,,,,,,,
21.12,0.00362,136.56,,,,,,,
21.17,0.00367,136.7,,,,,,,
21.22,0.00372,136.55,,,,,,,
21.27,0.00377,136.47,,,,,,,
21.3,0.0038,136.67,,,,,,,
21.32,0.00382,136.71,,,,,,,
21.37,0.00387,136.71,,,,,,,
21.42,0.00392,136.7,,,,,,,
21.47,0.00398,136.65,,,,,,,
21.52,0.00403,136.87,,,,,,,
21.57,0.00408,136.78,,,,,,,
21.62,0.00413,136.7,,,,,,,
21.67,0.00418,136.58,,,,,,,
21.73,0.00423,136.75,,,,,,,
21.78,0.00428,136.99,,,,,,,
21.8,0.00431,136.96,,,,,,,
21.82,0.00433,136.82,,,,,,,
21.87,0.00438,136.86,,,,,,,
21.93,0.00443,136.81,,,,,,,
21.98,0.00448,136.81,,,,,,,
22.03,0.00453,136.82,,,,,,,
22.08,0.00458,137.0,,,,,,,
22.16,0.00463,132.14,,,,,,,
22.24,0.00458,116.45,,,,,,,
22.28,0.00453,106.45,,,,,,,
22.3,0.0045,101.55,,,,,,,
22.31,0.00448,98.49,,,,,,,
22.35,0.00443,91.11,,,,,,,
22.38,0.00438,84.06,,,,,,,
22.42,0.00433,77.22,,,,,,,
22.47,0.00428,70.3,,,,,,,
22.51,0.00423,64.22,,,,,,,
22.57,0.00418,57.94,,,,,,,
22.62,0.00413,51.92,,,,,,,
22.68,0.00408,45.32,,,,,,,
22.74,0.00403,38.93,,,,,,,
22.79,0.00398,32.76,,,,,,,
22.8,0.00397,32.0,,,,,,,
22.84,0.00393,27.22,,,,,,,
22.9,0.00388,20.97,,,,,,,
22.95,0.00383,15.59,,,,,,,
23.0,0.00378,10.2,,,,,,,
23.05,0.00373,4.69,,,,,,,
23.11,0.00367,-0.71,,,,,,,
23.17,0.00362,-5.93,,,,,,,
23.27,0.00357,-8.22,,,,,,,
23.3,0.00356,-9.44,,,,,,,
23.36,0.00352,-12.4,,,,,,,
23.43,0.00347,-17.37,,,,,,,
23.51,0.00342,-24.07,,,,,,,
23.55,0.00337,-29.15,,,,,,,
23.59,0.00332,-35.65,,,,,,,
23.62,0.00327,-40.6,,,,,,,
23.65,0.00322,-44.3,,,,,,,
23.69,0.00317,-48.64,,,,,,,
23.75,0.00312,-53.12,,,,,,,
23.79,0.00307,-57.58,,,,,,,
23.8,0.00306,-58.61,,,,,,,
23.82,0.00302,-61.31,,,,,,,
23.86,0.00296,-67.04,,,,,,,
23.9,0.00291,-72.28,,,,,,,
23.94,0.00286,-76.39,,,,,,,
23.96,0.00281,-79.4,,,,,,,
24.01,0.00276,-83.46,,,,,,,
24.05,0.00271,-87.16,,,,,,,
24.09,0.00266,-89.93,,,,,,,
24.13,0.00261,-92.1,,,,,,,
24.18,0.00256,-94.46,,,,,,,
24.23,0.00251,-96.44,,,,,,,
24.29,0.00246,-98.67,,,,,,,
24.3,0.00243,-99.0,,,,,,,
24.34,0.0024,-100.54,,,,,,,
24.39,0.00235,-102.73,,,,,,,
24.44,0.0023,-104.74,,,,,,,
24.49,0.00225,-106.8,,,,,,,
24.54,0.0022,-108.51,,,,,,,
24.59,0.00215,-110.05,,,,,,,
24.63,0.0021,-111.5,,,,,,,
24.68,0.00205,-113.22,,,,,,,
24.73,0.002,-114.59,,,,,,,
24.78,0.00195,-115.87,,,,,,,
24.8,0.00193,-116.42,,,,,,,
24.83,0.0019,-117.02,,,,,,,
24.88,0.00185,-117.94,,,,,,,
24.93,0.0018,-118.88,,,,,,,
24.98,0.00174,-119.72,,,,,,,
25.03,0.00169,-120.29,,,,,,,
25.08,0.00164,-120.58,,,,,,,
25.13,0.00159,-121.19,,,,,,,
25.18,0.00154,-121.68,,,,,,,
25.24,0.00149,-122.16,,,,,,,
25.29,0.00144,-122.83,,,,,,,
25.3,0.00143,-122.71,,,,,,,
25.34,0.00138,-123.21,,,,,,,
25.38,0.00133,-123.35,,,,,,,
25.45,0.00128,-123.8,,,,,,,
25.49,0.00123,-124.14,,,,,,,
25.54,0.00118,-124.53,,,,,,,
25.58,0.00113,-124.62,,,,,,,
25.64,0.00108,-124.85,,,,,,,
25.69,0.00103,-124.94,,,,,,,
25.74,0.00098,-125.2,,,,,,,
25.79,0.00093,-125.39,,,,,,,
25.8,0.00092,-125.35,,,,,,,
25.84,0.00088,-125.61,,,,,,,
25.89,0.00083,-126.03,,,,,,,
25.95,0.00078,-126.42,,,,,,,
25.99,0.00073,-126.69,,,,,,,
26.05,0.00068,-127.01,,,,,,,
26.1,0.00062,-127.2,,,,,,,
26.14,0.00057,-127.22,,,,,,,
26.2,0.00052,-127.12,,,,,,,
26.24,0.00047,-127.44,,,,,,,
26.3,0.00042,-127.56,,,,,,,
26.3,0.00042,-127.41,,,,,,,
26.35,0.00037,-127.61,,,,,,,
26.4,0.00032,-128.02,,,,,,,
26.45,0.00027,-128.15,,,,,,,
26.5,0.00022,-128.34,,,,,,,
26.55,0.00017,-128.45,,,,,,,
26.6,0.00012,-128.36,,,,,,,
26.65,7e-05,-128.84,,,,,,,
26.7,2e-05,-128.86,,,,,,,
26.75,-3e-05,-129.16,,,,,,,
26.8,-8e-05,-129.27,,,,,,,
26.8,-9e-05,-129.08,,,,,,,
26.85,-0.00013,-128.97,,,,,,,
26.9,-0.00018,-128.93,,,,,,,
26.95,-0.00023,-128.81,,,,,,,
27.0,-0.00028,-128.83,,,,,,,
27.05,-0.00033,-129.3,,,,,,,
27.1,-0.00038,-129.36,,,,,,,
27.15,-0.00044,-129.57,,,,,,,
27.2,-0.00049,-129.44,,,,,,,
27.26,-0.00054,-129.42,,,,,,,
27.3,-0.00058,-129.44,,,,,,,
27.3,-0.00059,-129.63,,,,,,,
27.35,-0.00064,-129.9,,,,,,,
27.4,-0.00069,-129.94,,,,,,,
27.46,-0.00074,-130.07,,,,,,,
27.51,-0.00079,-130.27,,,,,,,
27.55,-0.00084,-130.44,,,,,,,
27.6,-0.00089,-130.51,,,,,,,
27.65,-0.00094,-130.68,,,,,,,
27.7,-0.00099,-130.59,,,,,,,
27.75,-0.00104,-130.55,,,,,,,
27.8,-0.00109,-130.39,,,,,,,
27.85,-0.00115,-130.52,,,,,,,
27.91,-0.0012,-130.39,,,,,,,
27.96,-0.00125,-130.4,,,,,,,
28.02,-0.0013,-130.41,,,,,,,
28.06,-0.00135,-130.66,,,,,,,
28.12,-0.0014,-131.0,,,,,,,
28.17,-0.00145,-131.32,,,,,,,
28.22,-0.0015,-131.36,,,,,,,
28.26,-0.00155,-131.4,,,,,,,
28.3,-0.00159,-131.15,,,,,,,
28.31,-0.0016,-131.38,,,,,,,
28.36,-0.00165,-131.2,,,,,,,
28.42,-0.0017,-130.97,,,,,,,
28.47,-0.00175,-131.07,,,,,,,
28.52,-0.0018,-131.06,,,,,,,
28.57,-0.00186,-131.33,,,,,,,
28.62,-0.00191,-131.42,,,,,,,
28.67,-0.00196,-131.67,,,,,,,
28.73,-0.00201,-131.84,,,,,,,
28.78,-0.00206,-132.3,,,,,,,
28.8,-0.00209,-132.41,,,,,,,
28.82,-0.00211,-132.77,,,,,,,
28.87,-0.00216,-132.92,,,,,,,
28.93,-0.00221,-132.88,,,,,,,
28.98,-0.00226,-133.37,,,,,,,
29.03,-0.00231,-133.59,,,,,,,
29.08,-0.00236,-133.7,,,,,,,
29.13,-0.00241,-133.66,,,,,,,
29.18,-0.00247,-133.83,,,,,,,
29.23,-0.00252,-133.58,,,,,,,
29.28,-0.00257,-133.5,,,,,,,
29.3,-0.00259,-133.43,,,,,,,
29.33,-0.00262,-133.6,,,,,,,
29.38,-0.00267,-133.78,,,,,,,
29.43,-0.00272,-133.69,,,,,,,
29.49,-0.00277,-134.18,,,,,,,
29.53,-0.00282,-134.17,,,,,,,
29.59,-0.00287,-134.26,,,,,,,
29.64,-0.00293,-134.4,,,,,,,
29.68,-0.00298,-134.2,,,,,,,
29.74,-0.00303,-134.11,,,,,,,
29.79,-0.00308,-134.36,,,,,,,
29.8,-0.0031,-134.12,,,,,,,
29.83,-0.00313,-134.19,,,,,,,
29.88,-0.00318,-133.96,,,,,,,
29.95,-0.00323,-133.91,,,,,,,
29.99,-0.00328,-134.17,,,,,,,
30.04,-0.00333,-134.45,,,,,,,
30.09,-0.00338,-134.95,,,,,,,
30.14,-0.00343,-135.05,,,,,,,
30.19,-0.00348,-134.95,,,,,,,
30.24,-0.00353,-135.28,,,,,,,
30.3,-0.00358,-135.53,,,,,,,
30.3,-0.00359,-135.41,,,,,,,
30.35,-0.00363,-135.81,,,,,,,
30.38,-0.00368,-136.04,,,,,,,
30.44,-0.00373,-135.89,,,,,,,
30.5,-0.00379,-136.08,,,,,,,
30.54,-0.00384,-136.13,,,,,,,
30.59,-0.00389,-136.26,,,,,,,
30.64,-0.00394,-136.19,,,,,,,
30.69,-0.00399,-136.1,,,,,,,
30.75,-0.00404,-136.09,,,,,,,
30.8,-0.00408,-136.17,,,,,,,
30.81,-0.00409,-136.38,,,,,,,
30.86,-0.00414,-137.02,,,,,,,
30.91,-0.00419,-137.56,,,,,,,
30.94,-0.00424,-138.15,,,,,,,
31.0,-0.00429,-138.12,,,,,,,
31.05,-0.00434,-138.24,,,,,,,
31.1,-0.00439,-137.98,,,,,,,
31.14,-0.00445,-137.88,,,,,,,
31.2,-0.0045,-137.6,,,,,,,
31.25,-0.00455,-137.47,,,,,,,
31.3,-0.00459,-136.84,,,,,,,
31.31,-0.0046,-136.65,,,,,,,
31.45,-0.00455,-113.18,,,,,,,
31.49,-0.0045,-104.02,,,,,,,
31.52,-0.00444,-95.84,,,,,,,
31.56,-0.00439,-87.81,,,,,,,
31.6,-0.00434,-80.7,,,,,,,
31.64,-0.00429,-74.29,,,,,,,
31.7,-0.00424,-66.06,,,,,,,
31.74,-0.00419,-60.52,,,,,,,
31.8,-0.00414,-53.27,,,,,,,
31.8,-0.00413,-52.97,,,,,,,
31.86,-0.00409,-45.79,,,,,,,
31.91,-0.00404,-40.39,,,,,,,
31.97,-0.00398,-33.51,,,,,,,
32.03,-0.00393,-26.71,,,,,,,
32.08,-0.00388,-20.7,,,,,,,
32.13,-0.00383,-14.57,,,,,,,
32.18,-0.00378,-8.71,,,,,,,
32.24,-0.00373,-3.44,,,,,,,
32.29,-0.00368,1.94,,,,,,,
32.3,-0.00366,3.36,,,,,,,
32.34,-0.00363,7.23,,,,,,,
32.4,-0.00358,12.99,,,,,,,
32.45,-0.00353,18.08,,,,,,,
32.5,-0.00347,22.6,,,,,,,
32.55,-0.00342,27.27,,,,,,,
32.6,-0.00337,31.77,,,,,,,
32.69,-0.00332,35.3,,,,,,,
32.79,-0.00327,38.84,,,,,,,
32.8,-0.00326,39.31,,,,,,,
32.86,-0.00322,43.61,,,,,,,
32.9,-0.00317,49.87,,,,,,,
32.94,-0.00312,55.68,,,,,,,
32.97,-0.00307,61.05,,,,,,,
33.02,-0.00302,65.41,,,,,,,
33.07,-0.00297,69.39,,,,,,,
33.13,-0.00292,72.57,,,,,,,
33.19,-0.00287,75.66,,,,,,,
33.25,-0.00282,79.29,,,,,,,
33.3,-0.00278,82.57,,,,,,,
33.32,-0.00277,83.48,,,,,,,
33.37,-0.00272,87.24,,,,,,,
33.42,-0.00266,91.68,,,,,,,
33.46,-0.00261,95.95,,,,,,,
33.49,-0.00256,100.41,,,,,,,
33.52,-0.00251,104.53,,,,,,,
33.55,-0.00246,108.75,,,,,,,
33.59,-0.00241,112.27,,,,,,,
33.62,-0.00236,115.61,,,,,,,
33.66,-0.00231,118.0,,,,,,,
33.7,-0.00226,120.12,,,,,,,
33.74,-0.00221,121.85,,,,,,,
33.78,-0.00216,123.19,,,,,,,
33.8,-0.00214,123.61,,,,,,,
33.83,-0.00211,123.91,,,,,,,
33.87,-0.00206,124.62,,,,,,,
33.93,-0.00201,125.01,,,,,,,
33.98,-0.00196,125.42,,,,,,,
34.03,-0.0019,125.94,,,,,,,
34.08,-0.00185,126.64,,,,,,,
34.13,-0.0018,127.22,,,,,,,
34.18,-0.00175,127.77,,,,,,,
34.23,-0.0017,128.17,,,,,,,
34.28,-0.00165,128.57,,,,,,,
34.3,-0.00163,128.85,,,,,,,
34.33,-0.0016,129.1,,,,,,,
34.38,-0.00155,129.39,,,,,,,
34.43,-0.0015,129.65,,,,,,,
34.48,-0.00145,130.03,,,,,,,
34.53,-0.0014,130.5,,,,,,,
34.58,-0.00135,130.61,,,,,,,
34.63,-0.0013,131.01,,,,,,,
34.68,-0.00125,131.25,,,,,,,
34.73,-0.0012,131.37,,,,,,,
34.78,-0.00115,131.46,,,,,,,
34.8,-0.00112,131.45,,,,,,,
34.83,-0.0011,131.34,,,,,,,
34.88,-0.00105,131.48,,,,,,,
34.93,-0.001,131.6,,,,,,,
34.98,-0.00095,131.7,,,,,,,
35.03,-0.0009,131.64,,,,,,,
35.07,-0.00084,131.7,,,,,,,
35.12,-0.00079,131.75,,,,,,,
35.17,-0.00074,131.73,,,,,,,
35.22,-0.00069,131.52,,,,,,,
35.27,-0.00064,131.18,,,,,,,
35.3,-0.00062,131.19,,,,,,,
35.33,-0.00059,131.05,,,,,,,
35.38,-0.00054,131.17,,,,,,,
35.43,-0.00049,131.36,,,,,,,
35.48,-0.00044,131.28,,,,,,,
35.53,-0.00039,131.25,,,,,,,
35.58,-0.00034,131.59,,,,,,,
35.63,-0.00029,131.64,,,,,,,
35.68,-0.00024,131.69,,,,,,,
35.73,-0.00019,131.91,,,,,,,
35.78,-0.00014,132.02,,,,,,,
35.8,-0.00012,132.03,,,,,,,
35.83,-9e-05,132.09,,,,,,,
74.72,-4e-05,132.44,,,,,,,
74.76,1e-05,132.56,,,,,,,
74.8,5e-05,132.52,,,,,,,
74.82,7e-05,132.3,,,,,,,
74.87,0.00012,132.38,,,,,,,
74.92,0.00017,132.29,,,,,,,
74.97,0.00022,132.51,,,,,,,
75.03,0.00027,132.88,,,,,,,
75.08,0.00032,133.18,,,,,,,
75.13,0.00037,133.51,,,,,,,
75.18,0.00042,133.63,,,,,,,
75.22,0.00047,133.73,,,,,,,
75.28,0.00052,133.84,,,,,,,
75.3,0.00054,133.93,,,,,,,
75.33,0.00057,133.82,,,,,,,
75.38,0.00062,133.81,,,,,,,
75.43,0.00068,134.01,,,,,,,
75.48,0.00073,133.88,,,,,,,
75.54,0.00078,133.81,,,,,,,
75.58,0.00083,134.06,,,,,,,
75.63,0.00088,134.18,,,,,,,
75.68,0.00093,134.18,,,,,,,
75.73,0.00098,134.43,,,,,,,
75.79,0.00103,134.68,,,,,,,
75.8,0.00105,134.92,,,,,,,
75.84,0.00108,135.18,,,,,,,
75.89,0.00113,135.1,,,,,,,
75.94,0.00118,135.37,,,,,,,
75.99,0.00123,135.55,,,,,,,
76.03,0.00128,135.36,,,,,,,
76.08,0.00133,135.48,,,,,,,
76.13,0.00138,135.28,,,,,,,
76.18,0.00144,135.18,,,,,,,
76.24,0.00149,135.29,,,,,,,
76.29,0.00154,135.24,,,,,,,
76.3,0.00155,135.2,,,,,,,
76.34,0.00159,134.93,,,,,,,
76.39,0.00164,135.16,,,,,,,
76.44,0.00169,135.11,,,,,,,
76.49,0.00174,135.03,,,,,,,
76.54,0.00179,135.14,,,,,,,
76.59,0.00184,135.33,,,,,,,
76.64,0.00189,135.37,,,,,,,
76.7,0.00194,135.46,,,,,,,
76.74,0.00199,135.53,,,,,,,
76.8,0.00204,135.49,,,,,,,
76.8,0.00205,135.62,,,,,,,
76.85,0.00209,135.67,,,,,,,
76.9,0.00215,135.92,,,,,,,
76.94,0.0022,136.16,,,,,,,
76.99,0.00225,136.25,,,,,,,
77.04,0.0023,136.19,,,,,,,
77.09,0.00235,135.94,,,,,,,
77.14,0.0024,136.0,,,,,,,
77.19,0.00245,135.77,,,,,,,
77.25,0.0025,135.57,,,,,,,
77.3,0.00255,135.67,,,,,,,
77.35,0.0026,135.67,,,,,,,
77.4,0.00265,135.86,,,,,,,
77.45,0.0027,136.04,,,,,,,
77.5,0.00275,136.18,,,,,,,
77.55,0.0028,136.34,,,,,,,
77.6,0.00285,136.27,,,,,,,
77.65,0.0029,136.26,,,,,,,
77.7,0.00296,136.08,,,,,,,
77.75,0.00301,135.92,,,,,,,
77.8,0.00305,135.92,,,,,,,
77.8,0.00306,135.81,,,,,,,
77.85,0.00311,135.78,,,,,,,
77.91,0.00316,136.01,,,,,,,
77.96,0.00321,136.34,,,,,,,
78.01,0.00326,136.45,,,,,,,
78.06,0.00331,136.74,,,,,,,
78.11,0.00336,136.89,,,,,,,
78.15,0.00341,136.96,,,,,,,
78.2,0.00346,136.85,,,,,,,
78.25,0.00351,136.75,,,,,,,
78.3,0.00355,136.52,,,,,,,
78.31,0.00356,136.43,,,,,,,
78.36,0.00361,136.58,,,,,,,
78.41,0.00366,136.5,,,,,,,
78.46,0.00372,136.59,,,,,,,
78.51,0.00377,136.74,,,,,,,
78.56,0.00382,137.02,,,,,,,
78.61,0.00387,137.2,,,,,,,
78.66,0.00392,137.49,,,,,,,
78.71,0.00397,137.43,,,,,,,
78.76,0.00402,137.56,,,,,,,
78.8,0.00406,137.62,,,,,,,
78.81,0.00407,137.5,,,,,,,
78.86,0.00412,137.6,,,,,,,
78.92,0.00417,137.27,,,,,,,
78.96,0.00422,137.26,,,,,,,
79.01,0.00427,137.46,,,,,,,
79.07,0.00432,137.58,,,,,,,
79.12,0.00437,137.62,,,,,,,
79.16,0.00442,137.68,,,,,,,
79.22,0.00448,137.72,,,,,,,
79.27,0.00453,137.84,,,,,,,
79.3,0.00456,138.06,,,,,,,
79.31,0.00458,138.12,,,,,,,
79.37,0.00463,138.16,,,,,,,
79.42,0.00468,138.08,,,,,,,
79.47,0.00473,138.13,,,,,,,
79.52,0.00478,137.93,,,,,,,
79.57,0.00483,137.9,,,,,,,
79.62,0.00488,137.87,,,,,,,
79.67,0.00493,137.67,,,,,,,
79.72,0.00498,137.63,,,,,,,
79.78,0.00503,135.04,,,,,,,
79.8,0.00504,132.85,,,,,,,
79.88,0.00498,116.31,,,,,,,
79.92,0.00493,106.66,,,,,,,
79.96,0.00488,98.58,,,,,,,
79.99,0.00483,91.17,,,,,,,
80.03,0.00478,84.07,,,,,,,
80.06,0.00473,77.07,,,,,,,
80.11,0.00468,70.37,,,,,,,
80.16,0.00463,63.67,,,,,,,
80.22,0.00458,57.35,,,,,,,
80.28,0.00452,50.63,,,,,,,
80.3,0.0045,48.0,,,,,,,
80.33,0.00447,44.73,,,,,,,
80.38,0.00442,39.05,,,,,,,
80.44,0.00437,33.1,,,,,,,
80.49,0.00432,27.78,,,,,,,
80.54,0.00427,21.83,,,,,,,
80.59,0.00422,16.63,,,,,,,
80.65,0.00417,10.75,,,,,,,
80.71,0.00412,5.37,,,,,,,
80.75,0.00407,1.0,,,,,,,
80.8,0.00403,-3.45,,,,,,,
80.81,0.00402,-4.73,,,,,,,
80.89,0.00397,-7.81,,,,,,,
81.01,0.00392,-12.43,,,,,,,
81.07,0.00387,-15.98,,,,,,,
81.16,0.00382,-21.72,,,,,,,
81.21,0.00377,-26.01,,,,,,,
81.26,0.00372,-33.55,,,,,,,
81.29,0.00366,-39.09,,,,,,,
81.3,0.00364,-41.16,,,,,,,
81.31,0.00361,-43.41,,,,,,,
81.35,0.00356,-48.93,,,,,,,
81.39,0.00351,-52.62,,,,,,,
81.43,0.00346,-56.92,,,,,,,
81.47,0.00341,-62.47,,,,,,,
81.51,0.00336,-67.28,,,,,,,
81.54,0.00331,-71.4,,,,,,,
81.57,0.00326,-74.76,,,,,,,
81.61,0.00321,-78.98,,,,,,,
81.65,0.00316,-82.59,,,,,,,
81.69,0.00311,-85.19,,,,,,,
81.74,0.00305,-88.44,,,,,,,
81.78,0.003,-90.62,,,,,,,
81.8,0.00298,-91.61,,,,,,,
81.83,0.00295,-93.13,,,,,,,
81.89,0.0029,-95.5,,,,,,,
81.93,0.00285,-97.77,,,,,,,
81.99,0.0028,-100.54,,,,,,,
82.04,0.00275,-102.73,,,,,,,
82.08,0.0027,-104.88,,,,,,,
82.12,0.00265,-106.75,,,,,,,
82.17,0.0026,-108.2,,,,,,,
82.23,0.00255,-109.81,,,,,,,
82.28,0.0025,-111.11,,,,,,,
82.3,0.00248,-112.0,,,,,,,
82.33,0.00245,-113.15,,,,,,,
82.37,0.0024,-114.26,,,,,,,
82.42,0.00235,-115.41,,,,,,,
82.47,0.0023,-116.42,,,,,,,
82.53,0.00225,-117.26,,,,,,,
82.58,0.0022,-118.12,,,,,,,
82.63,0.00215,-119.0,,,,,,,
82.67,0.0021,-119.87,,,,,,,
82.72,0.00205,-120.5,,,,,,,
82.78,0.002,-120.87,,,,,,,
82.8,0.00198,-121.14,,,,,,,
82.83,0.00195,-121.61,,,,,,,
82.87,0.0019,-122.51,,,,,,,
82.92,0.00185,-122.84,,,,,,,
82.97,0.0018,-123.4,,,,,,,
83.02,0.00175,-123.47,,,,,,,
83.06,0.00169,-123.31,,,,,,,
83.12,0.00164,-123.57,,,,,,,
83.16,0.00159,-123.64,,,,,,,
83.22,0.00154,-123.98,,,,,,,
83.28,0.00149,-124.31,,,,,,,
83.3,0.00147,-124.33,,,,,,,
83.33,0.00144,-124.73,,,,,,,
83.37,0.00139,-125.33,,,,,,,
83.43,0.00134,-125.64,,,,,,,
83.49,0.00129,-125.83,,,,,,,
83.53,0.00124,-126.28,,,,,,,
83.58,0.00119,-126.7,,,,,,,
83.63,0.00113,-126.66,,,,,,,
83.68,0.00108,-126.83,,,,,,,
83.73,0.00103,-126.96,,,,,,,
83.78,0.00098,-127.08,,,,,,,
83.8,0.00096,-127.02,,,,,,,
83.84,0.00093,-127.2,,,,,,,
83.89,0.00088,-127.39,,,,,,,
83.93,0.00083,-127.34,,,,,,,
83.98,0.00078,-127.75,,,,,,,
84.03,0.00073,-127.76,,,,,,,
84.08,0.00068,-127.97,,,,,,,
84.13,0.00063,-128.05,,,,,,,
84.18,0.00058,-128.03,,,,,,,
84.24,0.00052,-127.95,,,,,,,
84.29,0.00047,-127.86,,,,,,,
84.3,0.00046,-127.75,,,,,,,
84.34,0.00042,-127.89,,,,,,,
84.39,0.00037,-127.95,,,,,,,
84.44,0.00032,-128.13,,,,,,,
84.49,0.00027,-128.33,,,,,,,
84.54,0.00022,-128.58,,,,,,,
84.59,0.00017,-128.68,,,,,,,
84.65,0.00012,-129.0,,,,,,,
84.69,7e-05,-129.2,,,,,,,
84.74,2e-05,-129.35,,,,,,,
84.79,-4e-05,-129.37,,,,,,,
84.8,-5e-05,-129.39,,,,,,,
84.84,-9e-05,-129.58,,,,,,,
84.89,-0.00014,-129.58,,,,,,,
84.94,-0.00019,-129.55,,,,,,,
84.99,-0.00024,-129.43,,,,,,,
85.04,-0.00029,-129.72,,,,,,,
85.09,-0.00034,-129.63,,,,,,,
85.14,-0.00039,-129.27,,,,,,,
85.2,-0.00044,-129.33,,,,,,,
85.25,-0.00049,-129.21,,,,,,,
85.3,-0.00054,-129.26,,,,,,,
85.3,-0.00054,-129.16,,,,,,,
85.35,-0.00059,-129.56,,,,,,,
85.4,-0.00064,-129.59,,,,,,,
85.44,-0.00069,-129.65,,,,,,,
85.49,-0.00074,-129.75,,,,,,,
85.55,-0.00079,-129.41,,,,,,,
85.6,-0.00084,-129.24,,,,,,,
85.65,-0.00089,-129.4,,,,,,,
85.7,-0.00094,-129.59,,,,,,,
85.75,-0.00099,-130.04,,,,,,,
85.8,-0.00104,-130.39,,,,,,,
85.8,-0.00104,-130.48,,,,,,,
85.85,-0.00109,-130.99,,,,,,,
85.9,-0.00115,-131.31,,,,,,,
85.96,-0.0012,-131.5,,,,,,,
86.0,-0.00125,-131.61,,,,,,,
86.06,-0.0013,-131.66,,,,,,,
86.1,-0.00135,-131.47,,,,,,,
86.15,-0.0014,-131.44,,,,,,,
86.21,-0.00145,-131.34,,,,,,,
86.25,-0.0015,-131.2,,,,,,,
86.3,-0.00154,-131.25,,,,,,,
86.31,-0.00155,-131.41,,,,,,,
86.36,-0.0016,-131.57,,,,,,,
86.42,-0.00165,-131.67,,,,,,,
86.46,-0.00171,-131.92,,,,,,,
86.52,-0.00176,-132.26,,,,,,,
86.56,-0.00181,-132.39,,,,,,,
86.62,-0.00186,-132.81,,,,,,,
86.66,-0.00191,-132.88,,,,,,,
86.72,-0.00196,-133.06,,,,,,,
86.77,-0.00201,-133.16,,,,,,,
86.8,-0.00204,-133.19,,,,,,,
86.81,-0.00206,-133.11,,,,,,,
86.87,-0.00211,-133.28,,,,,,,
86.91,-0.00216,-133.2,,,,,,,
86.97,-0.00221,-133.29,,,,,,,
87.01,-0.00226,-133.21,,,,,,,
87.06,-0.00232,-133.43,,,,,,,
87.11,-0.00237,-133.38,,,,,,,
87.17,-0.00242,-133.37,,,,,,,
87.22,-0.00247,-133.31,,,,,,,
87.27,-0.00252,-133.55,,,,,,,
87.3,-0.00254,-133.53,,,,,,,
87.33,-0.00257,-133.64,,,,,,,
87.38,-0.00262,-133.9,,,,,,,
87.42,-0.00267,-133.91,,,,,,,
87.48,-0.00272,-134.2,,,,,,,
87.53,-0.00277,-134.27,,,,,,,
87.57,-0.00282,-134.36,,,,,,,
87.63,-0.00287,-134.52,,,,,,,
87.68,-0.00293,-134.8,,,,,,,
87.73,-0.00298,-134.89,,,,,,,
87.78,-0.00303,-134.87,,,,,,,
87.8,-0.00305,-134.92,,,,,,,
87.83,-0.00308,-134.81,,,,,,,
87.88,-0.00313,-135.19,,,,,,,
87.92,-0.00318,-135.33,,,,,,,
87.98,-0.00323,-135.23,,,,,,,
88.03,-0.00328,-135.26,,,,,,,
88.09,-0.00333,-135.35,,,,,,,
88.13,-0.00338,-135.35,,,,,,,
88.18,-0.00343,-135.44,,,,,,,
88.23,-0.00348,-135.67,,,,,,,
88.28,-0.00353,-135.66,,,,,,,
88.3,-0.00356,-135.64,,,,,,,
88.34,-0.00359,-135.7,,,,,,,
88.39,-0.00364,-135.46,,,,,,,
88.44,-0.00369,-135.33,,,,,,,
88.48,-0.00374,-135.41,,,,,,,
88.53,-0.00379,-135.36,,,,,,,
88.59,-0.00384,-135.66,,,,,,,
88.64,-0.00389,-135.78,,,,,,,
88.68,-0.00394,-135.62,,,,,,,
88.75,-0.00399,-135.67,,,,,,,
88.79,-0.00405,-135.68,,,,,,,
88.8,-0.00405,-135.74,,,,,,,
88.86,-0.0041,-136.03,,,,,,,
88.91,-0.00415,-136.44,,,,,,,
88.95,-0.0042,-136.77,,,,,,,
89.0,-0.00425,-137.18,,,,,,,
89.06,-0.0043,-137.59,,,,,,,
89.1,-0.00436,-137.85,,,,,,,
89.15,-0.00441,-137.93,,,,,,,
89.2,-0.00446,-137.95,,,,,,,
89.25,-0.00451,-138.12,,,,,,,
89.3,-0.00456,-138.02,,,,,,,
89.3,-0.00456,-138.07,,,,,,,
89.35,-0.00461,-137.94,,,,,,,
89.4,-0.00466,-137.7,,,,,,,
89.45,-0.00471,-137.47,,,,,,,
89.5,-0.00476,-137.18,,,,,,,
89.56,-0.00481,-136.69,,,,,,,
89.62,-0.00486,-137.01,,,,,,,
89.65,-0.00491,-137.3,,,,,,,
89.72,-0.00496,-137.49,,,,,,,
89.76,-0.00502,-136.21,,,,,,,
89.8,-0.00503,-133.01,,,,,,,
89.89,-0.00496,-113.21,,,,,,,
89.93,-0.00491,-104.82,,,,,,,
89.96,-0.00486,-95.99,,,,,,,
90.0,-0.00481,-87.79,,,,,,,
90.04,-0.00476,-80.19,,,,,,,
90.08,-0.00471,-73.03,,,,,,,
90.12,-0.00466,-66.76,,,,,,,
90.16,-0.00461,-60.29,,,,,,,
90.22,-0.00456,-53.9,,,,,,,
90.28,-0.00451,-46.9,,,,,,,
90.3,-0.00448,-44.36,,,,,,,
90.34,-0.00446,-40.35,,,,,,,
90.38,-0.00441,-35.21,,,,,,,
90.45,-0.00436,-27.74,,,,,,,
90.49,-0.00431,-22.87,,,,,,,
90.55,-0.00426,-16.04,,,,,,,
90.6,-0.00421,-10.65,,,,,,,
90.66,-0.00415,-4.47,,,,,,,
90.71,-0.0041,1.19,,,,,,,
90.77,-0.00405,6.74,,,,,,,
90.8,-0.00402,10.25,,,,,,,
90.81,-0.004,11.57,,,,,,,
90.87,-0.00395,17.48,,,,,,,
90.92,-0.0039,22.1,,,,,,,
90.97,-0.00385,26.9,,,,,,,
91.02,-0.0038,31.21,,,,,,,
91.11,-0.00375,35.14,,,,,,,
91.21,-0.0037,38.48,,,,,,,
91.28,-0.00365,43.34,,,,,,,
91.3,-0.00364,44.99,,,,,,,
91.33,-0.00359,50.21,,,,,,,
91.37,-0.00354,56.09,,,,,,,
91.39,-0.00349,60.5,,,,,,,
91.44,-0.00344,65.08,,,,,,,
91.49,-0.00339,69.0,,,,,,,
91.55,-0.00334,72.24,,,,,,,
91.61,-0.00329,75.43,,,,,,,
91.67,-0.00324,78.77,,,,,,,
91.73,-0.00319,82.25,,,,,,,
91.79,-0.00314,86.1,,,,,,,
91.8,-0.00313,86.96,,,,,,,
91.83,-0.00309,89.76,,,,,,,
91.88,-0.00304,94.63,,,,,,,
91.91,-0.00299,98.99,,,,,,,
91.94,-0.00294,103.46,,,,,,,
91.97,-0.00289,106.92,,,,,,,
92.01,-0.00284,110.82,,,,,,,
92.04,-0.00279,113.87,,,,,,,
92.08,-0.00274,116.85,,,,,,,
92.12,-0.00269,119.05,,,,,,,
92.16,-0.00264,120.89,,,,,,,
92.21,-0.00258,122.64,,,,,,,
92.26,-0.00253,123.85,,,,,,,
92.3,-0.00248,124.81,,,,,,,
92.3,-0.00248,124.96,,,,,,,
92.35,-0.00243,125.9,,,,,,,
92.4,-0.00238,126.54,,,,,,,
92.45,-0.00233,127.33,,,,,,,
92.5,-0.00228,128.0,,,,,,,
92.55,-0.00223,128.66,,,,,,,
92.6,-0.00218,129.13,,,,,,,
92.65,-0.00213,129.38,,,,,,,
92.7,-0.00208,129.89,,,,,,,
92.75,-0.00203,130.1,,,,,,,
92.8,-0.00198,130.33,,,,,,,
92.8,-0.00198,130.24,,,,,,,
92.85,-0.00193,130.7,,,,,,,
92.9,-0.00188,130.91,,,,,,,
92.95,-0.00183,130.87,,,,,,,
93.0,-0.00178,131.06,,,,,,,
93.04,-0.00172,131.12,,,,,,,
93.09,-0.00167,131.12,,,,,,,
93.14,-0.00162,131.16,,,,,,,
93.2,-0.00157,130.92,,,,,,,
93.25,-0.00152,130.87,,,,,,,
93.3,-0.00147,131.18,,,,,,,
93.3,-0.00147,131.06,,,,,,,
93.35,-0.00142,131.27,,,,,,,
93.4,-0.00137,131.57,,,,,,,
93.45,-0.00132,131.67,,,,,,,
93.5,-0.00127,132.1,,,,,,,
93.55,-0.00122,132.14,,,,,,,
93.6,-0.00117,132.39,,,,,,,
93.65,-0.00112,132.42,,,,,,,
93.7,-0.00107,132.37,,,,,,,
93.75,-0.00102,132.01,,,,,,,
93.8,-0.00097,132.09,,,,,,,
93.8,-0.00096,132.24,,,,,,,
93.85,-0.00091,132.21,,,,,,,
93.91,-0.00086,132.17,,,,,,,
93.95,-0.00081,132.3,,,,,,,
94.0,-0.00076,132.53,,,,,,,
94.05,-0.00071,132.52,,,,,,,
94.1,-0.00066,132.37,,,,,,,
94.16,-0.00061,132.01,,,,,,,
94.2,-0.00056,132.07,,,,,,,
94.26,-0.00051,131.82,,,,,,,
94.3,-0.00047,131.85,,,,,,,
94.31,-0.00046,131.79,,,,,,,
94.36,-0.00041,131.93,,,,,,,
94.41,-0.00036,132.17,,,,,,,
94.46,-0.00031,132.41,,,,,,,
94.52,-0.00025,132.71,,,,,,,
94.56,-0.0002,132.96,,,,,,,
94.61,-0.00015,133.47,,,,,,,
94.66,-0.0001,133.66,,,,,,,
174.74,-6e-05,131.98,,,,,,,
174.78,-1e-05,131.95,,,,,,,
174.8,-0.0,131.9,,,,,,,
174.84,4e-05,131.89,,,,,,,
174.89,9e-05,131.95,,,,,,,
174.94,0.00014,132.22,,,,,,,
174.99,0.00019,132.21,,,,,,,
175.05,0.00024,132.39,,,,,,,
175.1,0.00029,132.91,,,,,,,
175.15,0.00034,133.07,,,,,,,
175.19,0.00039,133.13,,,,,,,
175.24,0.00044,133.37,,,,,,,
175.29,0.00049,133.55,,,,,,,
175.3,0.0005,133.51,,,,,,,
175.34,0.00054,133.44,,,,,,,
175.39,0.00059,133.51,,,,,,,
175.44,0.00064,133.5,,,,,,,
175.49,0.00069,133.6,,,,,,,
175.54,0.00074,133.76,,,,,,,
175.59,0.00079,133.61,,,,,,,
175.64,0.00084,133.73,,,,,,,
175.69,0.0009,133.68,,,,,,,
175.75,0.00095,133.43,,,,,,,
175.8,0.001,133.57,,,,,,,
175.8,0.001,133.5,,,,,,,
175.85,0.00105,133.67,,,,,,,
175.9,0.0011,133.72,,,,,,,
175.95,0.00115,133.96,,,,,,,
176.0,0.0012,133.98,,,,,,,
176.05,0.00125,134.31,,,,,,,
176.1,0.0013,134.51,,,,,,,
176.15,0.00135,134.61,,,,,,,
176.2,0.0014,134.55,,,,,,,
176.25,0.00145,134.45,,,,,,,
176.3,0.0015,134.62,,,,,,,
176.3,0.0015,134.49,,,,,,,
176.35,0.00155,134.55,,,,,,,
176.4,0.0016,134.56,,,,,,,
176.45,0.00165,134.71,,,,,,,
176.5,0.00171,134.71,,,,,,,
176.55,0.00176,134.79,,,,,,,
176.6,0.00181,134.69,,,,,,,
176.65,0.00186,134.78,,,,,,,
176.71,0.00191,134.74,,,,,,,
176.75,0.00196,134.87,,,,,,,
176.8,0.002,134.92,,,,,,,
176.81,0.00201,135.04,,,,,,,
176.85,0.00206,135.06,,,,,,,
176.9,0.00211,135.21,,,,,,,
176.95,0.00216,135.28,,,,,,,
177.0,0.00221,135.56,,,,,,,
177.06,0.00226,135.57,,,,,,,
177.1,0.00231,135.26,,,,,,,
177.16,0.00236,134.94,,,,,,,
177.21,0.00241,134.96,,,,,,,
177.26,0.00246,135.25,,,,,,,
177.3,0.00251,135.49,,,,,,,
177.31,0.00251,135.75,,,,,,,
177.36,0.00257,135.84,,,,,,,
177.41,0.00262,136.03,,,,,,,
177.46,0.00267,136.26,,,,,,,
177.51,0.00272,136.24,,,,,,,
177.56,0.00277,136.29,,,,,,,
177.61,0.00282,136.47,,,,,,,
177.66,0.00287,136.55,,,,,,,
177.71,0.00292,136.6,,,,,,,
177.77,0.00297,136.48,,,,,,,
177.8,0.00301,136.52,,,,,,,
177.82,0.00302,136.53,,,,,,,
177.86,0.00307,136.87,,,,,,,
177.91,0.00312,137.13,,,,,,,
177.96,0.00317,137.21,,,,,,,
178.01,0.00322,136.99,,,,,,,
178.06,0.00327,136.89,,,,,,,
178.11,0.00332,136.85,,,,,,,
178.16,0.00337,136.9,,,,,,,
178.22,0.00342,136.72,,,,,,,
178.27,0.00347,136.86,,,,,,,
178.3,0.00351,136.95,,,,,,,
178.32,0.00352,136.97,,,,,,,
178.37,0.00358,137.13,,,,,,,
178.42,0.00363,137.34,,,,,,,
178.47,0.00368,137.38,,,,,,,
178.52,0.00373,137.31,,,,,,,
178.57,0.00378,137.3,,,,,,,
178.62,0.00383,137.68,,,,,,,
178.67,0.00388,137.6,,,,,,,
178.72,0.00393,137.76,,,,,,,
178.77,0.00398,137.85,,,,,,,
178.8,0.00401,137.88,,,,,,,
178.82,0.00403,138.0,,,,,,,
178.87,0.00408,138.02,,,,,,,
178.92,0.00413,138.04,,,,,,,
178.97,0.00418,138.2,,,,,,,
179.02,0.00423,138.58,,,,,,,
179.07,0.00428,138.46,,,,,,,
179.11,0.00433,138.58,,,,,,,
179.16,0.00438,138.28,,,,,,,
179.22,0.00444,137.71,,,,,,,
179.27,0.00449,137.37,,,,,,,
179.3,0.00452,137.16,,,,,,,
179.32,0.00454,137.27,,,,,,,
179.37,0.00459,136.91,,,,,,,
179.43,0.00464,137.09,,,,,,,
179.48,0.00469,137.19,,,,,,,
179.53,0.00474,137.43,,,,,,,
179.59,0.00479,138.18,,,,,,,
179.63,0.00484,138.38,,,,,,,
179.68,0.0049,138.88,,,,,,,
179.73,0.00495,139.22,,,,,,,
179.78,0.005,139.0,,,,,,,
179.8,0.00501,138.21,,,,,,,
179.96,0.00495,110.79,,,,,,,
179.99,0.00489,102.21,,,,,,,
180.02,0.00484,94.49,,,,,,,
180.06,0.00479,87.88,,,,,,,
180.1,0.00474,80.38,,,,,,,
180.14,0.00469,73.8,,,,,,,
180.19,0.00464,67.17,,,,,,,
180.24,0.00459,60.85,,,,,,,
180.3,0.00454,54.59,,,,,,,
180.3,0.00454,54.05,,,,,,,
180.36,0.00449,47.94,,,,,,,
180.41,0.00444,42.41,,,,,,,
180.46,0.00439,36.71,,,,,,,
180.51,0.00434,30.81,,,,,,,
180.57,0.00429,25.06,,,,,,,
180.62,0.00424,19.8,,,,,,,
180.67,0.00419,14.74,,,,,,,
180.73,0.00414,9.03,,,,,,,
180.78,0.00409,4.57,,,,,,,
180.8,0.00407,2.13,,,,,,,
180.84,0.00403,-1.05,,,,,,,
180.89,0.00398,-5.3,,,,,,,
180.99,0.00393,-8.13,,,,,,,
181.09,0.00388,-12.39,,,,,,,
181.17,0.00383,-17.34,,,,,,,
181.24,0.00378,-22.58,,,,,,,
181.29,0.00373,-27.15,,,,,,,
181.3,0.00373,-28.82,,,,,,,
181.33,0.00368,-33.6,,,,,,,
181.36,0.00363,-39.7,,,,,,,
181.39,0.00358,-43.73,,,,,,,
181.43,0.00353,-48.79,,,,,,,
181.47,0.00348,-52.86,,,,,,,
181.51,0.00343,-57.56,,,,,,,
181.55,0.00337,-62.81,,,,,,,
181.59,0.00332,-67.84,,,,,,,
181.62,0.00327,-71.68,,,,,,,
181.65,0.00322,-75.48,,,,,,,
181.69,0.00317,-79.72,,,,,,,
181.74,0.00312,-83.5,,,,,,,
181.78,0.00306,-86.57,,,,,,,
181.8,0.00304,-88.1,,,,,,,
181.82,0.00301,-89.48,,,,,,,
181.87,0.00296,-91.77,,,,,,,
181.92,0.00291,-93.98,,,,,,,
181.97,0.00286,-96.19,,,,,,,
182.02,0.00281,-98.51,,,,,,,
182.07,0.00276,-100.82,,,,,,,
182.13,0.00271,-103.08,,,,,,,
182.18,0.00265,-104.7,,,,,,,
182.22,0.0026,-106.66,,,,,,,
182.27,0.00255,-108.49,,,,,,,
182.3,0.00253,-109.51,,,,,,,
182.32,0.0025,-110.06,,,,,,,
182.37,0.00245,-111.81,,,,,,,
182.42,0.0024,-113.36,,,,,,,
182.47,0.00235,-114.74,,,,,,,
182.52,0.0023,-116.1,,,,,,,
182.57,0.00225,-117.26,,,,,,,
182.63,0.0022,-118.39,,,,,,,
182.68,0.00215,-119.27,,,,,,,
182.72,0.0021,-120.09,,,,,,,
182.77,0.00205,-120.8,,,,,,,
182.8,0.00202,-121.4,,,,,,,
182.82,0.002,-121.67,,,,,,,
182.86,0.00195,-122.11,,,,,,,
182.92,0.0019,-122.76,,,,,,,
182.96,0.00185,-122.82,,,,,,,
183.02,0.0018,-123.15,,,,,,,
183.06,0.00175,-123.44,,,,,,,
183.12,0.00169,-123.69,,,,,,,
183.17,0.00164,-123.97,,,,,,,
183.23,0.00159,-124.18,,,,,,,
183.27,0.00154,-124.5,,,,,,,
183.3,0.00151,-124.68,,,,,,,
183.33,0.00149,-124.8,,,,,,,
183.38,0.00143,-125.0,,,,,,,
183.43,0.00138,-125.17,,,,,,,
183.48,0.00133,-125.41,,,,,,,
183.53,0.00128,-125.69,,,,,,,
183.57,0.00123,-125.8,,,,,,,
183.62,0.00118,-126.0,,,,,,,
183.68,0.00113,-126.28,,,,,,,
183.73,0.00108,-126.39,,,,,,,
183.78,0.00103,-126.6,,,,,,,
183.8,0.00101,-126.65,,,,,,,
183.83,0.00098,-126.7,,,,,,,
183.88,0.00093,-126.78,,,,,,,
183.94,0.00088,-126.94,,,,,,,
183.98,0.00082,-127.17,,,,,,,
184.03,0.00077,-127.45,,,,,,,
184.08,0.00072,-127.59,,,,,,,
184.14,0.00067,-127.96,,,,,,,
184.19,0.00062,-127.92,,,,,,,
184.24,0.00057,-127.93,,,,,,,
184.28,0.00052,-127.96,,,,,,,
184.3,0.00051,-128.06,,,,,,,
184.33,0.00047,-128.09,,,,,,,
184.39,0.00042,-128.0,,,,,,,
184.43,0.00037,-128.2,,,,,,,
184.48,0.00032,-128.41,,,,,,,
184.53,0.00027,-128.16,,,,,,,
184.58,0.00022,-128.22,,,,,,,
184.63,0.00017,-127.76,,,,,,,
184.69,0.00012,-127.8,,,,,,,
184.74,7e-05,-127.99,,,,,,,
184.79,2e-05,-127.97,,,,,,,
184.8,1e-05,-128.12,,,,,,,
184.84,-3e-05,-128.24,,,,,,,
184.89,-8e-05,-128.46,,,,,,,
184.94,-0.00013,-128.89,,,,,,,
184.99,-0.00018,-129.18,,,,,,,
185.04,-0.00024,-129.33,,,,,,,
185.09,-0.00029,-129.49,,,,,,,
185.14,-0.00034,-129.66,,,,,,,
185.19,-0.00039,-129.91,,,,,,,
185.24,-0.00044,-130.16,,,,,,,
185.29,-0.00049,-130.33,,,,,,,
185.3,-0.0005,-130.33,,,,,,,
185.34,-0.00054,-130.51,,,,,,,
185.39,-0.00059,-130.62,,,,,,,
185.44,-0.00064,-130.79,,,,,,,
185.5,-0.00069,-130.93,,,,,,,
185.55,-0.00074,-131.01,,,,,,,
185.6,-0.00079,-131.25,,,,,,,
185.64,-0.00084,-131.41,,,,,,,
185.7,-0.00089,-131.29,,,,,,,
185.74,-0.00094,-131.34,,,,,,,
185.79,-0.00099,-131.15,,,,,,,
185.8,-0.001,-131.41,,,,,,,
185.85,-0.00105,-131.47,,,,,,,
185.9,-0.0011,-131.33,,,,,,,
185.95,-0.00115,-131.47,,,,,,,
186.0,-0.0012,-131.44,,,,,,,
186.05,-0.00125,-131.32,,,,,,,
186.11,-0.0013,-131.56,,,,,,,
186.15,-0.00135,-131.8,,,,,,,
186.21,-0.0014,-132.17,,,,,,,
186.25,-0.00145,-132.27,,,,,,,
186.3,-0.0015,-132.52,,,,,,,
186.3,-0.0015,-132.33,,,,,,,
186.35,-0.00155,-132.69,,,,,,,
186.41,-0.0016,-132.9,,,,,,,
186.46,-0.00165,-132.88,,,,,,,
186.5,-0.0017,-133.02,,,,,,,
186.55,-0.00176,-133.08,,,,,,,
186.61,-0.00181,-132.94,,,,,,,
186.66,-0.00186,-133.17,,,,,,,
186.71,-0.00191,-133.2,,,,,,,
186.76,-0.00196,-133.31,,,,,,,
186.8,-0.002,-133.37,,,,,,,
186.81,-0.00201,-133.4,,,,,,,
186.86,-0.00206,-133.22,,,,,,,
186.91,-0.00211,-133.32,,,,,,,
186.96,-0.00216,-133.4,,,,,,,
187.01,-0.00221,-133.22,,,,,,,
187.06,-0.00226,-133.4,,,,,,,
187.11,-0.00231,-133.33,,,,,,,
187.17,-0.00236,-133.42,,,,,,,
187.22,-0.00241,-133.81,,,,,,,
187.27,-0.00246,-134.03,,,,,,,
187.3,-0.0025,-134.26,,,,,,,
187.32,-0.00252,-134.27,,,,,,,
187.36,-0.00257,-134.4,,,,,,,
187.41,-0.00262,-134.51,,,,,,,
187.46,-0.00267,-134.36,,,,,,,
187.52,-0.00272,-134.29,,,,,,,
187.57,-0.00277,-134.31,,,,,,,
187.61,-0.00282,-134.15,,,,,,,
187.67,-0.00287,-134.39,,,,,,,
187.72,-0.00292,-134.67,,,,,,,
187.77,-0.00297,-134.8,,,,,,,
187.8,-0.00301,-134.94,,,,,,,
187.82,-0.00302,-134.9,,,,,,,
187.87,-0.00307,-134.76,,,,,,,
187.92,-0.00312,-134.87,,,,,,,
187.97,-0.00317,-135.05,,,,,,,
188.02,-0.00322,-135.03,,,,,,,
188.07,-0.00328,-135.08,,,,,,,
188.12,-0.00333,-135.43,,,,,,,
188.17,-0.00338,-135.42,,,,,,,
188.23,-0.00343,-135.79,,,,,,,
188.27,-0.00348,-136.02,,,,,,,
188.3,-0.0035,-136.13,,,,,,,
188.32,-0.00353,-136.04,,,,,,,
188.38,-0.00358,-136.02,,,,,,,
188.43,-0.00363,-136.25,,,,,,,
188.48,-0.00368,-136.47,,,,,,,
188.51,-0.00373,-136.76,,,,,,,
188.56,-0.00378,-136.34,,,,,,,
188.62,-0.00383,-136.0,,,,,,,
188.68,-0.00388,-135.73,,,,,,,
188.72,-0.00393,-135.35,,,,,,,
188.77,-0.00398,-135.34,,,,,,,
188.8,-0.00401,-135.41,,,,,,,
188.82,-0.00403,-135.45,,,,,,,
188.88,-0.00408,-135.59,,,,,,,
188.93,-0.00414,-136.0,,,,,,,
188.98,-0.00419,-136.09,,,,,,,
189.03,-0.00424,-136.23,,,,,,,
189.08,-0.00429,-136.42,,,,,,,
189.13,-0.00434,-136.57,,,,,,,
189.17,-0.00439,-136.48,,,,,,,
189.24,-0.00444,-136.36,,,,,,,
189.29,-0.00449,-136.45,,,,,,,
189.3,-0.0045,-136.53,,,,,,,
189.34,-0.00454,-136.29,,,,,,,
189.39,-0.00459,-136.46,,,,,,,
189.44,-0.00465,-136.78,,,,,,,
189.48,-0.0047,-136.76,,,,,,,
189.53,-0.00475,-136.96,,,,,,,
189.59,-0.0048,-136.91,,,,,,,
189.64,-0.00485,-137.09,,,,,,,
189.69,-0.0049,-137.24,,,,,,,
189.75,-0.00495,-137.23,,,,,,,
189.79,-0.005,-136.84,,,,,,,
189.8,-0.005,-136.34,,,,,,,
189.95,-0.00495,-111.06,,,,,,,
189.99,-0.0049,-101.2,,,,,,,
190.01,-0.00485,-94.59,,,,,,,
190.05,-0.0048,-86.07,,,,,,,
190.09,-0.00475,-78.82,,,,,,,
190.13,-0.0047,-71.8,,,,,,,
190.18,-0.00464,-63.66,,,,,,,
190.23,-0.00459,-57.59,,,,,,,
190.28,-0.00454,-52.26,,,,,,,
190.3,-0.00452,-49.54,,,,,,,
190.35,-0.00449,-44.47,,,,,,,
190.4,-0.00444,-38.31,,,,,,,
190.45,-0.00439,-32.23,,,,,,,
190.51,-0.00434,-25.71,,,,,,,
190.56,-0.00429,-19.31,,,,,,,
190.61,-0.00424,-14.03,,,,,,,
190.66,-0.00419,-8.78,,,,,,,
190.72,-0.00414,-2.5,,,,,,,
190.77,-0.00409,3.38,,,,,,,
190.8,-0.00406,5.97,,,,,,,
190.83,-0.00404,8.49,,,,,,,
190.88,-0.00398,13.68,,,,,,,
190.93,-0.00393,18.87,,,,,,,
190.98,-0.00388,23.84,,,,,,,
191.04,-0.00383,29.37,,,,,,,
191.1,-0.00378,33.76,,,,,,,
191.2,-0.00373,36.93,,,,,,,
191.3,-0.00368,41.09,,,,,,,
191.3,-0.00367,41.35,,,,,,,
191.35,-0.00363,46.39,,,,,,,
191.38,-0.00358,52.46,,,,,,,
191.42,-0.00353,58.04,,,,,,,
191.46,-0.00348,63.16,,,,,,,
191.5,-0.00343,67.03,,,,,,,
191.55,-0.00338,70.68,,,,,,,
191.62,-0.00332,74.18,,,,,,,
191.68,-0.00327,77.6,,,,,,,
191.75,-0.00322,81.34,,,,,,,
191.8,-0.00317,84.94,,,,,,,
191.8,-0.00317,84.97,,,,,,,
191.85,-0.00312,89.01,,,,,,,
191.9,-0.00307,93.9,,,,,,,
191.93,-0.00302,98.57,,,,,,,
191.97,-0.00297,102.8,,,,,,,
192.0,-0.00292,107.1,,,,,,,
192.03,-0.00287,110.85,,,,,,,
192.07,-0.00282,114.27,,,,,,,
192.1,-0.00277,117.32,,,,,,,
192.14,-0.00272,119.61,,,,,,,
192.18,-0.00267,121.99,,,,,,,
192.22,-0.00262,123.5,,,,,,,
192.27,-0.00257,124.83,,,,,,,
192.3,-0.00253,125.54,,,,,,,
192.31,-0.00251,125.79,,,,,,,
192.36,-0.00246,126.87,,,,,,,
192.41,-0.00241,127.58,,,,,,,
192.46,-0.00236,128.08,,,,,,,
192.51,-0.00231,128.79,,,,,,,
192.56,-0.00226,129.25,,,,,,,
192.61,-0.00221,129.81,,,,,,,
192.66,-0.00216,130.42,,,,,,,
192.71,-0.00211,130.87,,,,,,,
192.76,-0.00206,131.32,,,,,,,
192.8,-0.00202,131.6,,,,,,,
192.81,-0.00201,131.65,,,,,,,
192.86,-0.00196,132.05,,,,,,,
192.91,-0.00191,132.17,,,,,,,
192.96,-0.00186,132.26,,,,,,,
193.01,-0.00181,132.33,,,,,,,
193.06,-0.00176,132.54,,,,,,,
193.11,-0.00171,132.45,,,,,,,
193.16,-0.00166,132.47,,,,,,,
193.21,-0.00161,132.43,,,,,,,
193.26,-0.00156,132.44,,,,,,,
193.3,-0.00151,132.31,,,,,,,
193.31,-0.00151,132.35,,,,,,,
193.36,-0.00146,132.18,,,,,,,
193.41,-0.00141,132.14,,,,,,,
193.46,-0.00135,132.13,,,,,,,
193.51,-0.0013,131.97,,,,,,,
193.56,-0.00125,131.98,,,,,,,
193.61,-0.0012,131.85,,,,,,,
193.66,-0.00115,131.8,,,,,,,
193.71,-0.0011,131.85,,,,,,,
193.76,-0.00105,131.7,,,,,,,
193.8,-0.00101,131.61,,,,,,,
193.81,-0.001,131.77,,,,,,,
193.86,-0.00095,131.64,,,,,,,
193.91,-0.0009,131.37,,,,,,,
193.96,-0.00085,131.32,,,,,,,
194.01,-0.0008,131.46,,,,,,,
194.06,-0.00075,131.5,,,,,,,
194.11,-0.0007,131.59,,,,,,,
194.16,-0.00065,131.55,,,,,,,
194.21,-0.0006,131.63,,,,,,,
194.26,-0.00055,131.81,,,,,,,
194.3,-0.00051,131.73,,,,,,,
194.31,-0.0005,131.88,,,,,,,
194.37,-0.00045,131.99,,,,,,,
194.42,-0.0004,132.03,,,,,,,
194.47,-0.00034,132.23,,,,,,,
194.51,-0.00029,132.23,,,,,,,
194.56,-0.00024,132.4,,,,,,,
194.61,-0.00019,132.22,,,,,,,
194.67,-0.00014,132.14,,,,,,,
194.72,-9e-05,132.3,,,,,,,
374.84,-5e-05,132.47,,,,,,,
374.89,0.0,132.51,,,,,,,
374.94,5e-05,132.46,,,,,,,
374.99,0.0001,132.51,,,,,,,
375.04,0.00015,132.53,,,,,,,
375.1,0.0002,132.7,,,,,,,
375.15,0.00025,132.71,,,,,,,
375.2,0.0003,133.06,,,,,,,
375.25,0.00035,133.02,,,,,,,
375.3,0.00041,133.23,,,,,,,
375.3,0.00041,133.26,,,,,,,
375.35,0.00046,133.12,,,,,,,
375.4,0.00051,133.06,,,,,,,
375.45,0.00056,133.13,,,,,,,
375.49,0.00061,133.02,,,,,,,
375.55,0.00066,132.85,,,,,,,
375.6,0.00071,132.58,,,,,,,
375.65,0.00076,132.77,,,,,,,
375.71,0.00081,133.02,,,,,,,
375.75,0.00086,133.07,,,,,,,
375.8,0.00091,133.32,,,,,,,
375.81,0.00091,133.33,,,,,,,
375.85,0.00096,133.68,,,,,,,
375.91,0.00101,134.0,,,,,,,
375.95,0.00107,134.15,,,,,,,
376.01,0.00112,134.48,,,,,,,
376.05,0.00117,134.61,,,,,,,
376.11,0.00122,134.86,,,,,,,
376.16,0.00127,134.97,,,,,,,
376.21,0.00132,135.0,,,,,,,
376.26,0.00137,135.03,,,,,,,
376.3,0.00141,134.91,,,,,,,
376.31,0.00142,134.86,,,,,,,
376.36,0.00147,134.98,,,,,,,
376.41,0.00152,135.1,,,,,,,
376.46,0.00157,134.91,,,,,,,
376.51,0.00162,135.11,,,,,,,
376.56,0.00167,134.88,,,,,,,
376.61,0.00172,134.86,,,,,,,
376.66,0.00177,134.98,,,,,,,
376.71,0.00182,134.8,,,,,,,
376.76,0.00187,134.87,,,,,,,
376.8,0.00192,134.67,,,,,,,
376.81,0.00192,134.74,,,,,,,
376.86,0.00198,134.58,,,,,,,
376.91,0.00203,134.63,,,,,,,
376.96,0.00208,134.91,,,,,,,
377.02,0.00213,135.0,,,,,,,
377.06,0.00218,135.02,,,,,,,
377.11,0.00223,135.19,,,,,,,
377.16,0.00228,135.29,,,,,,,
377.21,0.00233,135.53,,,,,,,
377.26,0.00238,135.66,,,,,,,
377.3,0.00242,135.37,,,,,,,
377.31,0.00243,135.44,,,,,,,
377.36,0.00248,135.32,,,,,,,
377.41,0.00253,135.08,,,,,,,
377.46,0.00258,134.7,,,,,,,
377.52,0.00263,134.67,,,,,,,
377.57,0.00268,134.64,,,,,,,
377.61,0.00273,134.7,,,,,,,
377.67,0.00279,135.03,,,,,,,
377.72,0.00284,135.04,,,,,,,
377.76,0.00289,134.96,,,,,,,
377.8,0.00292,134.89,,,,,,,
377.82,0.00294,134.95,,,,,,,
377.87,0.00299,134.98,,,,,,,
377.93,0.00304,135.14,,,,,,,
377.98,0.00309,135.57,,,,,,,
378.03,0.00314,135.77,,,,,,,
378.08,0.00319,136.32,,,,,,,
378.13,0.00324,137.11,,,,,,,
378.18,0.00329,137.34,,,,,,,
378.22,0.00334,137.77,,,,,,,
378.27,0.00339,138.04,,,,,,,
378.3,0.00343,137.75,,,,,,,
378.31,0.00344,137.78,,,,,,,
378.36,0.00349,137.25,,,,,,,
378.41,0.00355,136.63,,,,,,,
378.47,0.0036,136.11,,,,,,,
378.52,0.00365,135.52,,,,,,,
378.58,0.0037,135.3,,,,,,,
378.64,0.00375,135.71,,,,,,,
378.68,0.0038,136.21,,,,,,,
378.73,0.00385,136.74,,,,,,,
378.78,0.0039,137.01,,,,,,,
378.8,0.00392,137.17,,,,,,,
378.83,0.00395,137.41,,,,,,,
378.88,0.004,137.52,,,,,,,
378.93,0.00405,137.62,,,,,,,
378.98,0.0041,137.32,,,,,,,
379.03,0.00415,137.29,,,,,,,
379.08,0.0042,137.29,,,,,,,
379.13,0.00426,136.95,,,,,,,
379.18,0.00431,137.18,,,,,,,
379.24,0.00436,137.31,,,,,,,
379.29,0.00441,137.36,,,,,,,
379.3,0.00443,137.51,,,,,,,
379.33,0.00446,137.71,,,,,,,
379.38,0.00451,137.86,,,,,,,
379.43,0.00456,137.79,,,,,,,
379.47,0.00461,137.45,,,,,,,
379.53,0.00466,136.92,,,,,,,
379.58,0.00471,136.68,,,,,,,
379.63,0.00476,136.37,,,,,,,
379.69,0.00481,136.18,,,,,,,
379.74,0.00486,136.25,,,,,,,
379.79,0.00491,136.33,,,,,,,
379.8,0.00492,136.36,,,,,,,
379.84,0.00496,136.56,,,,,,,
379.91,0.00501,134.86,,,,,,,
380.03,0.00496,113.99,,,,,,,
380.07,0.00491,104.77,,,,,,,
380.1,0.00486,97.12,,,,,,,
380.13,0.00481,90.13,,,,,,,
380.17,0.00476,82.71,,,,,,,
380.22,0.00471,75.4,,,,,,,
380.27,0.00466,68.91,,,,,,,
380.3,0.00462,64.19,,,,,,,
380.31,0.00461,62.64,,,,,,,
380.37,0.00456,56.72,,,,,,,
380.42,0.00451,50.66,,,,,,,
380.48,0.00446,44.57,,,,,,,
380.54,0.00441,38.74,,,,,,,
380.59,0.00436,32.93,,,,,,,
380.64,0.0043,27.39,,,,,,,
380.7,0.00425,21.41,,,,,,,
380.74,0.0042,16.64,,,,,,,
380.8,0.00415,11.1,,,,,,,
380.8,0.00415,10.75,,,,,,,
380.85,0.0041,5.6,,,,,,,
380.9,0.00405,1.75,,,,,,,
380.96,0.004,-3.51,,,,,,,
381.03,0.00395,-7.36,,,,,,,
381.16,0.0039,-11.09,,,,,,,
381.23,0.00385,-15.63,,,,,,,
381.3,0.00381,-20.82,,,,,,,
381.31,0.0038,-21.13,,,,,,,
381.36,0.00375,-26.38,,,,,,,
381.4,0.0037,-32.2,,,,,,,
381.44,0.00365,-37.89,,,,,,,
381.47,0.00359,-42.97,,,,,,,
381.51,0.00354,-47.28,,,,,,,
381.55,0.00349,-51.55,,,,,,,
381.6,0.00344,-55.69,,,,,,,
381.63,0.00339,-59.91,,,,,,,
381.67,0.00334,-64.61,,,,,,,
381.7,0.00329,-69.06,,,,,,,
381.73,0.00324,-73.02,,,,,,,
381.77,0.00319,-76.62,,,,,,,
381.8,0.00315,-80.15,,,,,,,
381.81,0.00314,-80.93,,,,,,,
381.85,0.00309,-84.26,,,,,,,
381.9,0.00304,-87.13,,,,,,,
381.94,0.00299,-89.67,,,,,,,
381.99,0.00294,-92.1,,,,,,,
382.03,0.00289,-94.51,,,,,,,
382.09,0.00284,-96.83,,,,,,,
382.14,0.00278,-99.26,,,,,,,
382.19,0.00273,-101.66,,,,,,,
382.24,0.00268,-103.78,,,,,,,
382.29,0.00263,-105.81,,,,,,,
382.3,0.00262,-106.36,,,,,,,
382.34,0.00258,-107.93,,,,,,,
382.39,0.00253,-109.5,,,,,,,
382.44,0.00248,-111.27,,,,,,,
382.49,0.00243,-112.68,,,,,,,
382.54,0.00237,-113.99,,,,,,,
382.59,0.00232,-114.93,,,,,,,
382.64,0.00227,-115.83,,,,,,,
382.68,0.00222,-117.02,,,,,,,
382.73,0.00217,-117.64,,,,,,,
382.79,0.00212,-118.5,,,,,,,
382.8,0.00211,-118.65,,,,,,,
382.84,0.00207,-119.3,,,,,,,
382.89,0.00202,-119.79,,,,,,,
382.95,0.00197,-120.59,,,,,,,
382.99,0.00192,-121.23,,,,,,,
383.04,0.00187,-122.02,,,,,,,
383.09,0.00182,-122.67,,,,,,,
383.14,0.00177,-123.11,,,,,,,
383.19,0.00172,-123.53,,,,,,,
383.24,0.00166,-123.75,,,,,,,
383.29,0.00161,-123.99,,,,,,,
383.3,0.0016,-124.12,,,,,,,
383.34,0.00156,-124.2,,,,,,,
383.39,0.00151,-124.43,,,,,,,
383.43,0.00146,-124.59,,,,,,,
383.49,0.00141,-124.95,,,,,,,
383.54,0.00136,-124.93,,,,,,,
383.6,0.00131,-125.1,,,,,,,
383.64,0.00126,-124.96,,,,,,,
383.69,0.00121,-125.09,,,,,,,
383.74,0.00116,-125.15,,,,,,,
383.79,0.00111,-125.25,,,,,,,
383.8,0.0011,-125.45,,,,,,,
383.84,0.00105,-125.64,,,,,,,
383.89,0.001,-126.0,,,,,,,
383.95,0.00095,-126.14,,,,,,,
384.0,0.0009,-126.49,,,,,,,
384.05,0.00085,-126.35,,,,,,,
384.11,0.0008,-126.45,,,,,,,
384.16,0.00075,-126.68,,,,,,,
384.21,0.0007,-126.78,,,,,,,
384.26,0.00064,-126.98,,,,,,,
384.3,0.0006,-127.24,,,,,,,
384.3,0.00059,-127.26,,,,,,,
384.36,0.00054,-127.5,,,,,,,
384.4,0.00049,-127.68,,,,,,,
384.45,0.00044,-127.45,,,,,,,
384.5,0.00039,-127.21,,,,,,,
384.55,0.00034,-127.05,,,,,,,
384.61,0.00029,-126.83,,,,,,,
384.66,0.00024,-126.88,,,,,,,
384.72,0.00019,-126.99,,,,,,,
384.77,0.00014,-127.5,,,,,,,
384.8,0.0001,-127.76,,,,,,,
384.81,9e-05,-127.73,,,,,,,
384.86,4e-05,-128.23,,,,,,,
384.91,-1e-05,-128.31,,,,,,,
384.96,-7e-05,-128.44,,,,,,,
385.01,-0.00012,-128.42,,,,,,,
385.06,-0.00017,-128.33,,,,,,,
385.12,-0.00022,-128.37,,,,,,,
385.17,-0.00027,-128.56,,,,,,,
385.23,-0.00032,-128.78,,,,,,,
385.28,-0.00037,-129.13,,,,,,,
385.3,-0.0004,-129.41,,,,,,,
385.32,-0.00042,-129.45,,,,,,,
385.37,-0.00047,-130.08,,,,,,,
385.42,-0.00052,-130.25,,,,,,,
385.46,-0.00057,-130.53,,,,,,,
385.52,-0.00063,-130.43,,,,,,,
385.56,-0.00068,-130.09,,,,,,,
385.61,-0.00073,-129.7,,,,,,,
385.66,-0.00078,-129.36,,,,,,,
385.71,-0.00083,-128.97,,,,,,,
385.77,-0.00088,-128.83,,,,,,,
385.8,-0.0009,-128.71,,,,,,,
385.82,-0.00093,-128.85,,,,,,,
385.87,-0.00098,-128.92,,,,,,,
385.93,-0.00103,-129.29,,,,,,,
385.98,-0.00108,-129.69,,,,,,,
386.03,-0.00113,-130.09,,,,,,,
386.08,-0.00118,-130.47,,,,,,,
386.13,-0.00123,-130.85,,,,,,,
386.18,-0.00128,-131.11,,,,,,,
386.22,-0.00133,-131.47,,,,,,,
386.27,-0.00138,-131.64,,,,,,,
386.3,-0.00141,-131.69,,,,,,,
386.33,-0.00144,-131.59,,,,,,,
386.38,-0.00149,-131.56,,,,,,,
386.43,-0.00154,-131.63,,,,,,,
386.48,-0.00159,-131.54,,,,,,,
386.53,-0.00164,-131.78,,,,,,,
386.58,-0.00169,-132.09,,,,,,,
386.63,-0.00174,-132.29,,,,,,,
386.68,-0.00179,-132.28,,,,,,,
386.73,-0.00184,-132.57,,,,,,,
386.78,-0.00189,-132.41,,,,,,,
386.8,-0.00191,-132.35,,,,,,,
386.83,-0.00195,-132.01,,,,,,,
386.88,-0.002,-132.05,,,,,,,
386.93,-0.00205,-131.8,,,,,,,
386.99,-0.0021,-131.66,,,,,,,
387.04,-0.00215,-131.87,,,,,,,
387.09,-0.0022,-132.01,,,,,,,
387.14,-0.00225,-132.05,,,,,,,
387.19,-0.0023,-132.3,,,,,,,
387.24,-0.00235,-132.49,,,,,,,
387.29,-0.00241,-132.55,,,,,,,
387.3,-0.00242,-132.57,,,,,,,
387.34,-0.00246,-132.66,,,,,,,
387.39,-0.00251,-132.45,,,,,,,
387.45,-0.00256,-132.36,,,,,,,
387.5,-0.00261,-132.8,,,,,,,
387.55,-0.00266,-132.94,,,,,,,
387.6,-0.00271,-133.16,,,,,,,
387.64,-0.00276,-133.37,,,,,,,
387.7,-0.00281,-133.65,,,,,,,
387.75,-0.00286,-133.76,,,,,,,
387.79,-0.00291,-133.93,,,,,,,
387.8,-0.00291,-133.94,,,,,,,
387.84,-0.00296,-134.15,,,,,,,
387.9,-0.00301,-134.09,,,,,,,
387.95,-0.00306,-134.02,,,,,,,
388.0,-0.00311,-134.12,,,,,,,
388.05,-0.00316,-134.29,,,,,,,
388.1,-0.00321,-134.31,,,,,,,
388.15,-0.00326,-133.99,,,,,,,
388.2,-0.00332,-133.93,,,,,,,
388.25,-0.00337,-134.01,,,,,,,
388.3,-0.00342,-134.13,,,,,,,
388.3,-0.00342,-134.07,,,,,,,
388.35,-0.00347,-134.15,,,,,,,
388.4,-0.00352,-133.84,,,,,,,
388.45,-0.00357,-134.15,,,,,,,
388.5,-0.00362,-134.08,,,,,,,
388.56,-0.00367,-134.04,,,,,,,
388.61,-0.00372,-134.09,,,,,,,
388.66,-0.00377,-133.98,,,,,,,
388.71,-0.00382,-134.17,,,,,,,
388.77,-0.00387,-134.45,,,,,,,
388.8,-0.00391,-134.57,,,,,,,
388.82,-0.00393,-134.79,,,,,,,
388.86,-0.00398,-135.12,,,,,,,
388.91,-0.00403,-135.29,,,,,,,
388.96,-0.00408,-135.68,,,,,,,
389.01,-0.00413,-135.61,,,,,,,
389.06,-0.00418,-135.51,,,,,,,
389.11,-0.00423,-135.62,,,,,,,
389.16,-0.00428,-135.66,,,,,,,
389.21,-0.00433,-135.46,,,,,,,
389.26,-0.00438,-135.6,,,,,,,
389.3,-0.00441,-135.53,,,,,,,
389.31,-0.00443,-135.53,,,,,,,
389.36,-0.00448,-135.61,,,,,,,
389.42,-0.00453,-135.87,,,,,,,
389.47,-0.00459,-136.1,,,,,,,
389.52,-0.00464,-136.43,,,,,,,
389.57,-0.00469,-136.37,,,,,,,
389.62,-0.00474,-136.71,,,,,,,
389.67,-0.00479,-136.67,,,,,,,
389.72,-0.00484,-136.45,,,,,,,
389.77,-0.00489,-136.46,,,,,,,
389.8,-0.00492,-136.42,,,,,,,
389.83,-0.00494,-136.43,,,,,,,
389.88,-0.00499,-135.93,,,,,,,
390.04,-0.00494,-108.56,,,,,,,
390.08,-0.00489,-99.17,,,,,,,
390.11,-0.00484,-92.46,,,,,,,
390.15,-0.00479,-83.91,,,,,,,
390.19,-0.00474,-75.94,,,,,,,
390.23,-0.00469,-69.14,,,,,,,
390.27,-0.00464,-62.8,,,,,,,
390.3,-0.00461,-59.17,,,,,,,
390.34,-0.00459,-55.14,,,,,,,
390.39,-0.00453,-48.45,,,,,,,
390.44,-0.00448,-42.91,,,,,,,
390.5,-0.00443,-35.8,,,,,,,
390.55,-0.00438,-30.27,,,,,,,
390.6,-0.00433,-24.3,,,,,,,
390.66,-0.00428,-18.13,,,,,,,
390.71,-0.00423,-12.28,,,,,,,
390.77,-0.00418,-5.6,,,,,,,
390.8,-0.00414,-2.2,,,,,,,
390.81,-0.00413,-1.09,,,,,,,
390.86,-0.00408,3.96,,,,,,,
390.92,-0.00403,9.57,,,,,,,
390.97,-0.00398,14.51,,,,,,,
391.04,-0.00393,20.74,,,,,,,
391.08,-0.00388,24.65,,,,,,,
391.14,-0.00383,29.95,,,,,,,
391.2,-0.00378,33.94,,,,,,,
391.3,-0.00373,37.14,,,,,,,
391.3,-0.00372,37.31,,,,,,,
391.39,-0.00368,41.28,,,,,,,
391.44,-0.00363,47.17,,,,,,,
391.47,-0.00357,52.67,,,,,,,
391.51,-0.00352,57.78,,,,,,,
391.55,-0.00347,62.72,,,,,,,
391.59,-0.00342,66.55,,,,,,,
391.65,-0.00337,70.12,,,,,,,
391.71,-0.00332,73.07,,,,,,,
391.78,-0.00327,76.65,,,,,,,
391.8,-0.00325,78.16,,,,,,,
391.83,-0.00322,79.89,,,,,,,
391.89,-0.00317,83.48,,,,,,,
391.94,-0.00312,87.22,,,,,,,
391.99,-0.00307,91.38,,,,,,,
392.03,-0.00302,95.89,,,,,,,
392.06,-0.00297,100.15,,,,,,,
392.09,-0.00292,104.14,,,,,,,
392.13,-0.00287,108.2,,,,,,,
392.16,-0.00281,111.37,,,,,,,
392.19,-0.00276,114.25,,,,,,,
392.24,-0.00271,117.0,,,,,,,
392.28,-0.00266,119.16,,,,,,,
392.3,-0.00263,120.2,,,,,,,
392.32,-0.00261,120.51,,,,,,,
392.36,-0.00256,121.76,,,,,,,
392.41,-0.00251,122.91,,,,,,,
392.46,-0.00246,123.76,,,,,,,
392.51,-0.00241,124.4,,,,,,,
392.56,-0.00236,125.37,,,,,,,
392.61,-0.00231,126.19,,,,,,,
392.66,-0.00226,126.86,,,,,,,
392.72,-0.00221,127.64,,,,,,,
392.77,-0.00215,128.2,,,,,,,
392.8,-0.00212,128.92,,,,,,,
392.81,-0.0021,129.02,,,,,,,
392.86,-0.00205,129.63,,,,,,,
392.91,-0.002,130.32,,,,,,,
392.96,-0.00195,130.51,,,,,,,
393.01,-0.0019,130.76,,,,,,,
393.06,-0.00185,130.92,,,,,,,
393.11,-0.0018,130.92,,,,,,,
393.15,-0.00175,130.78,,,,,,,
393.2,-0.0017,130.67,,,,,,,
393.26,-0.00165,130.61,,,,,,,
393.3,-0.0016,130.62,,,,,,,
393.31,-0.0016,130.55,,,,,,,
393.36,-0.00155,130.55,,,,,,,
393.41,-0.0015,130.5,,,,,,,
393.46,-0.00145,130.32,,,,,,,
393.51,-0.0014,130.6,,,,,,,
393.56,-0.00135,130.91,,,,,,,
393.61,-0.0013,131.3,,,,,,,
393.66,-0.00125,131.71,,,,,,,
393.71,-0.00119,131.78,,,,,,,
393.76,-0.00114,131.63,,,,,,,
393.8,-0.00109,131.65,,,,,,,
393.8,-0.00109,131.71,,,,,,,
393.85,-0.00104,131.22,,,,,,,
393.91,-0.00099,130.93,,,,,,,
393.96,-0.00094,130.54,,,,,,,
394.01,-0.00089,130.44,,,,,,,
394.06,-0.00084,129.99,,,,,,,
394.11,-0.00079,129.98,,,,,,,
394.17,-0.00074,130.09,,,,,,,
394.22,-0.00069,130.02,,,,,,,
394.27,-0.00064,130.34,,,,,,,
394.3,-0.0006,130.44,,,,,,,
394.32,-0.00059,130.58,,,,,,,
394.37,-0.00054,130.97,,,,,,,
394.42,-0.00049,131.0,,,,,,,
394.47,-0.00043,131.48,,,,,,,
394.52,-0.00038,131.41,,,,,,,
394.57,-0.00033,131.61,,,,,,,
394.62,-0.00028,131.79,,,,,,,
394.67,-0.00023,132.08,,,,,,,
394.72,-0.00018,132.11,,,,,,,
394.77,-0.00013,132.3,,,,,,,
394.8,-0.0001,132.07,,,,,,,
394.82,-8e-05,132.07,,,,,,,
975.1,-5e-05,131.02,,,,,,,
975.15,-0.0,130.99,,,,,,,
975.21,5e-05,130.94,,,,,,,
975.27,0.0001,131.2,,,,,,,
975.3,0.00013,131.39,,,,,,,
975.31,0.00015,131.42,,,,,,,
975.36,0.0002,132.01,,,,,,,
975.41,0.00025,132.26,,,,,,,
975.47,0.0003,132.9,,,,,,,
975.51,0.00035,133.26,,,,,,,
975.56,0.0004,133.32,,,,,,,
975.61,0.00045,133.48,,,,,,,
975.65,0.0005,133.51,,,,,,,
975.71,0.00055,133.13,,,,,,,
975.76,0.0006,132.99,,,,,,,
975.8,0.00065,132.77,,,,,,,
975.81,0.00066,132.81,,,,,,,
975.86,0.00071,132.57,,,,,,,
975.92,0.00076,132.37,,,,,,,
975.96,0.00081,132.65,,,,,,,
976.01,0.00086,132.86,,,,,,,
976.07,0.00091,133.06,,,,,,,
976.12,0.00096,133.2,,,,,,,
976.17,0.00101,133.46,,,,,,,
976.22,0.00106,133.44,,,,,,,
976.27,0.00111,133.64,,,,,,,
976.3,0.00115,133.69,,,,,,,
976.32,0.00116,133.73,,,,,,,
976.36,0.00121,133.77,,,,,,,
976.41,0.00126,133.78,,,,,,,
976.46,0.00131,133.63,,,,,,,
976.52,0.00136,133.36,,,,,,,
976.57,0.00141,133.36,,,,,,,
976.61,0.00146,133.34,,,,,,,
976.67,0.00151,133.58,,,,,,,
976.72,0.00156,133.58,,,,,,,
976.77,0.00161,133.49,,,,,,,
976.8,0.00165,133.56,,,,,,,
976.82,0.00166,133.47,,,,,,,
976.87,0.00172,133.47,,,,,,,
976.92,0.00177,133.5,,,,,,,
976.97,0.00182,133.65,,,,,,,
977.02,0.00187,133.65,,,,,,,
977.06,0.00192,133.66,,,,,,,
977.12,0.00197,133.88,,,,,,,
977.17,0.00202,133.9,,,,,,,
977.22,0.00207,133.94,,,,,,,
977.27,0.00212,133.86,,,,,,,
977.3,0.00215,133.8,,,,,,,
977.32,0.00217,133.93,,,,,,,
977.38,0.00222,133.91,,,,,,,
977.43,0.00227,134.03,,,,,,,
977.48,0.00232,133.97,,,,,,,
977.52,0.00237,134.25,,,,,,,
977.57,0.00242,134.37,,,,,,,
977.63,0.00247,134.39,,,,,,,
977.67,0.00252,134.34,,,,,,,
977.72,0.00257,134.38,,,,,,,
977.78,0.00262,134.43,,,,,,,
977.8,0.00265,134.56,,,,,,,
977.83,0.00267,134.65,,,,,,,
977.88,0.00272,135.01,,,,,,,
977.93,0.00278,135.27,,,,,,,
977.98,0.00283,135.45,,,,,,,
978.03,0.00288,135.74,,,,,,,
978.08,0.00293,135.92,,,,,,,
978.13,0.00298,135.81,,,,,,,
978.17,0.00303,135.83,,,,,,,
978.22,0.00308,135.74,,,,,,,
978.28,0.00313,135.46,,,,,,,
978.3,0.00315,135.47,,,,,,,
978.33,0.00318,135.45,,,,,,,
978.38,0.00323,135.28,,,,,,,
978.43,0.00328,135.31,,,,,,,
978.48,0.00333,135.24,,,,,,,
978.53,0.00338,135.59,,,,,,,
978.58,0.00343,135.62,,,,,,,
978.64,0.00348,135.86,,,,,,,
978.68,0.00353,135.95,,,,,,,
978.73,0.00358,136.28,,,,,,,
978.78,0.00363,136.4,,,,,,,
978.8,0.00365,136.48,,,,,,,
978.83,0.00369,136.42,,,,,,,
978.88,0.00374,136.6,,,,,,,
978.93,0.00379,136.55,,,,,,,
978.98,0.00384,136.53,,,,,,,
979.03,0.00389,136.36,,,,,,,
979.08,0.00394,136.22,,,,,,,
979.14,0.00399,136.38,,,,,,,
979.19,0.00404,136.57,,,,,,,
979.24,0.00409,136.64,,,,,,,
979.29,0.00414,136.73,,,,,,,
979.3,0.00415,136.81,,,,,,,
979.34,0.00419,136.89,,,,,,,
979.39,0.00424,136.88,,,,,,,
979.43,0.00429,137.06,,,,,,,
979.49,0.00434,137.07,,,,,,,
979.54,0.00439,136.99,,,,,,,
979.58,0.00445,136.89,,,,,,,
979.63,0.0045,136.74,,,,,,,
979.68,0.00455,136.4,,,,,,,
979.73,0.0046,136.16,,,,,,,
979.78,0.00465,136.04,,,,,,,
979.8,0.00466,135.87,,,,,,,
979.84,0.0047,135.6,,,,,,,
979.89,0.00475,135.58,,,,,,,
979.95,0.0048,135.64,,,,,,,
980.0,0.00485,136.03,,,,,,,
980.05,0.0049,136.29,,,,,,,
980.1,0.00495,136.87,,,,,,,
980.15,0.005,136.12,,,,,,,
980.3,0.00496,112.61,,,,,,,
980.3,0.00495,111.81,,,,,,,
980.34,0.0049,103.58,,,,,,,
980.37,0.00485,95.41,,,,,,,
980.41,0.0048,88.21,,,,,,,
980.45,0.00475,81.74,,,,,,,
980.49,0.0047,75.23,,,,,,,
980.54,0.00465,68.78,,,,,,,
980.59,0.0046,62.33,,,,,,,
980.65,0.00454,56.64,,,,,,,
980.7,0.00449,50.65,,,,,,,
980.76,0.00444,44.68,,,,,,,
980.8,0.0044,39.91,,,,,,,
980.81,0.00439,39.02,,,,,,,
980.86,0.00434,33.34,,,,,,,
980.92,0.00429,27.71,,,,,,,
980.97,0.00424,22.16,,,,,,,
981.02,0.00419,16.78,,,,,,,
981.08,0.00414,11.38,,,,,,,
981.12,0.00409,6.93,,,,,,,
981.18,0.00404,1.84,,,,,,,
981.23,0.00399,-3.15,,,,,,,
981.3,0.00394,-6.63,,,,,,,
981.43,0.00389,-9.57,,,,,,,
981.5,0.00384,-14.09,,,,,,,
981.58,0.00379,-19.4,,,,,,,
981.63,0.00374,-24.91,,,,,,,
981.67,0.00369,-30.18,,,,,,,
981.71,0.00364,-35.93,,,,,,,
981.74,0.00359,-41.03,,,,,,,
981.78,0.00354,-45.62,,,,,,,
981.8,0.00351,-47.46,,,,,,,
981.83,0.00349,-49.61,,,,,,,
981.88,0.00343,-53.73,,,,,,,
981.92,0.00338,-58.72,,,,,,,
981.96,0.00333,-63.6,,,,,,,
981.99,0.00328,-68.18,,,,,,,
982.02,0.00323,-72.64,,,,,,,
982.06,0.00318,-76.51,,,,,,,
982.09,0.00313,-80.44,,,,,,,
982.13,0.00308,-83.69,,,,,,,
982.17,0.00303,-86.48,,,,,,,
982.22,0.00297,-89.27,,,,,,,
982.26,0.00292,-91.52,,,,,,,
982.3,0.00288,-93.22,,,,,,,
982.31,0.00287,-93.73,,,,,,,
982.36,0.00282,-95.86,,,,,,,
982.41,0.00277,-97.37,,,,,,,
982.47,0.00272,-99.5,,,,,,,
982.51,0.00267,-101.15,,,,,,,
982.57,0.00262,-103.18,,,,,,,
982.62,0.00257,-105.47,,,,,,,
982.67,0.00252,-107.0,,,,,,,
982.72,0.00247,-108.78,,,,,,,
982.76,0.00242,-110.05,,,,,,,
982.8,0.00238,-111.21,,,,,,,
982.82,0.00237,-111.76,,,,,,,
982.86,0.00232,-112.93,,,,,,,
982.91,0.00227,-114.14,,,,,,,
982.96,0.00221,-115.33,,,,,,,
983.02,0.00216,-116.53,,,,,,,
983.06,0.00211,-117.21,,,,,,,
983.12,0.00206,-118.43,,,,,,,
983.17,0.00201,-119.04,,,,,,,
983.21,0.00196,-119.8,,,,,,,
983.26,0.00191,-120.5,,,,,,,
983.3,0.00187,-120.61,,,,,,,
983.31,0.00186,-120.79,,,,,,,
983.36,0.00181,-121.11,,,,,,,
983.42,0.00176,-121.5,,,,,,,
983.47,0.0017,-121.78,,,,,,,
983.52,0.00165,-122.14,,,,,,,
983.57,0.0016,-122.59,,,,,,,
983.62,0.00155,-123.13,,,,,,,
983.67,0.0015,-123.54,,,,,,,
983.72,0.00145,-123.75,,,,,,,
983.77,0.0014,-124.19,,,,,,,
983.8,0.00137,-124.09,,,,,,,
983.82,0.00135,-124.28,,,,,,,
983.87,0.0013,-124.34,,,,,,,
983.92,0.00125,-124.51,,,,,,,
983.97,0.0012,-124.58,,,,,,,
984.02,0.00115,-124.83,,,,,,,
984.07,0.0011,-124.96,,,,,,,
984.12,0.00105,-125.14,,,,,,,
984.17,0.001,-125.23,,,,,,,
984.22,0.00094,-125.41,,,,,,,
984.27,0.00089,-125.46,,,,,,,
984.3,0.00087,-125.51,,,,,,,
984.32,0.00084,-125.58,,,,,,,
984.37,0.00079,-125.64,,,,,,,
984.42,0.00074,-125.72,,,,,,,
984.47,0.00069,-125.9,,,,,,,
984.52,0.00064,-126.01,,,,,,,
984.57,0.00059,-126.01,,,,,,,
984.62,0.00054,-126.04,,,,,,,
984.67,0.00049,-126.14,,,,,,,
984.73,0.00044,-126.17,,,,,,,
984.77,0.00039,-126.33,,,,,,,
984.8,0.00036,-126.31,,,,,,,
984.82,0.00034,-126.52,,,,,,,
984.88,0.00029,-126.37,,,,,,,
984.92,0.00024,-126.59,,,,,,,
984.98,0.00019,-126.31,,,,,,,
985.02,0.00014,-126.48,,,,,,,
985.08,8e-05,-126.39,,,,,,,
985.13,3e-05,-126.47,,,,,,,
985.18,-2e-05,-126.55,,,,,,,
985.23,-7e-05,-126.5,,,,,,,
985.28,-0.00012,-126.52,,,,,,,
985.3,-0.00013,-126.54,,,,,,,
985.33,-0.00017,-126.95,,,,,,,
985.38,-0.00022,-127.1,,,,,,,
985.43,-0.00027,-127.18,,,,,,,
985.48,-0.00032,-127.3,,,,,,,
985.53,-0.00037,-127.28,,,,,,,
985.58,-0.00042,-127.47,,,,,,,
985.63,-0.00047,-127.53,,,,,,,
985.68,-0.00052,-127.88,,,,,,,
985.74,-0.00058,-127.93,,,,,,,
985.78,-0.00063,-127.9,,,,,,,
985.8,-0.00064,-127.96,,,,,,,
985.84,-0.00068,-128.11,,,,,,,
985.89,-0.00073,-128.13,,,,,,,
985.94,-0.00078,-128.24,,,,,,,
985.99,-0.00083,-128.54,,,,,,,
986.03,-0.00088,-128.91,,,,,,,
986.09,-0.00093,-129.11,,,,,,,
986.14,-0.00098,-129.08,,,,,,,
986.19,-0.00103,-129.05,,,,,,,
986.24,-0.00108,-129.02,,,,,,,
986.29,-0.00113,-129.32,,,,,,,
986.3,-0.00114,-129.23,,,,,,,
986.35,-0.00118,-129.19,,,,,,,
986.4,-0.00124,-129.38,,,,,,,
986.45,-0.00129,-129.59,,,,,,,
986.5,-0.00134,-129.66,,,,,,,
986.55,-0.00139,-129.79,,,,,,,
986.6,-0.00144,-129.81,,,,,,,
986.65,-0.00149,-129.88,,,,,,,
986.7,-0.00154,-129.93,,,,,,,
986.75,-0.00159,-130.09,,,,,,,
986.79,-0.00164,-129.9,,,,,,,
986.8,-0.00165,-129.91,,,,,,,
986.85,-0.00169,-129.84,,,,,,,
986.9,-0.00174,-129.72,,,,,,,
986.95,-0.00179,-129.66,,,,,,,
987.01,-0.00184,-129.7,,,,,,,
987.06,-0.0019,-129.99,,,,,,,
987.11,-0.00195,-130.41,,,,,,,
987.16,-0.002,-130.82,,,,,,,
987.2,-0.00205,-130.98,,,,,,,
987.26,-0.0021,-131.54,,,,,,,
987.3,-0.00215,-131.64,,,,,,,
987.3,-0.00215,-131.55,,,,,,,
987.35,-0.0022,-131.8,,,,,,,
987.4,-0.00225,-131.9,,,,,,,
987.45,-0.0023,-131.9,,,,,,,
987.51,-0.00235,-131.91,,,,,,,
987.56,-0.0024,-131.82,,,,,,,
987.6,-0.00245,-131.96,,,,,,,
987.66,-0.0025,-131.77,,,,,,,
987.71,-0.00255,-131.8,,,,,,,
987.76,-0.0026,-132.0,,,,,,,
987.8,-0.00265,-132.03,,,,,,,
987.8,-0.00265,-131.99,,,,,,,
987.85,-0.0027,-132.11,,,,,,,
987.91,-0.00275,-132.0,,,,,,,
987.95,-0.0028,-131.82,,,,,,,
988.0,-0.00285,-131.89,,,,,,,
988.06,-0.0029,-131.88,,,,,,,
988.11,-0.00295,-131.88,,,,,,,
988.16,-0.00301,-131.82,,,,,,,
988.21,-0.00306,-132.03,,,,,,,
988.26,-0.00311,-132.01,,,,,,,
988.3,-0.00315,-132.01,,,,,,,
988.31,-0.00316,-132.08,,,,,,,
988.36,-0.00321,-132.08,,,,,,,
988.41,-0.00326,-132.18,,,,,,,
988.47,-0.00331,-132.45,,,,,,,
988.52,-0.00336,-132.5,,,,,,,
988.57,-0.00341,-132.66,,,,,,,
988.61,-0.00346,-132.94,,,,,,,
988.66,-0.00351,-132.9,,,,,,,
988.72,-0.00357,-132.73,,,,,,,
988.76,-0.00362,-132.64,,,,,,,
988.8,-0.00365,-132.49,,,,,,,
988.81,-0.00367,-132.39,,,,,,,
988.87,-0.00372,-132.49,,,,,,,
988.91,-0.00377,-132.31,,,,,,,
988.97,-0.00382,-132.37,,,,,,,
989.03,-0.00387,-132.5,,,,,,,
989.07,-0.00392,-132.82,,,,,,,
989.13,-0.00397,-133.13,,,,,,,
989.18,-0.00402,-133.39,,,,,,,
989.22,-0.00407,-133.69,,,,,,,
989.27,-0.00412,-133.73,,,,,,,
989.3,-0.00416,-134.04,,,,,,,
989.33,-0.00417,-134.0,,,,,,,
989.38,-0.00422,-134.15,,,,,,,
989.43,-0.00428,-134.0,,,,,,,
989.47,-0.00433,-134.25,,,,,,,
989.53,-0.00438,-134.38,,,,,,,
989.58,-0.00443,-134.42,,,,,,,
989.63,-0.00448,-134.64,,,,,,,
989.69,-0.00453,-134.75,,,,,,,
989.73,-0.00458,-134.83,,,,,,,
989.78,-0.00463,-135.0,,,,,,,
989.8,-0.00465,-135.21,,,,,,,
989.83,-0.00468,-135.37,,,,,,,
989.88,-0.00473,-135.46,,,,,,,
989.93,-0.00478,-135.34,,,,,,,
989.98,-0.00483,-135.31,,,,,,,
990.03,-0.00489,-135.21,,,,,,,
990.08,-0.00494,-134.87,,,,,,,
990.14,-0.00499,-134.13,,,,,,,
990.3,-0.00494,-109.43,,,,,,,
990.31,-0.00494,-108.25,,,,,,,
990.35,-0.00489,-98.16,,,,,,,
990.39,-0.00484,-89.39,,,,,,,
990.41,-0.00479,-83.22,,,,,,,
990.46,-0.00473,-74.59,,,,,,,
990.51,-0.00468,-66.78,,,,,,,
990.56,-0.00463,-60.44,,,,,,,
990.6,-0.00458,-54.08,,,,,,,
990.66,-0.00453,-48.02,,,,,,,
990.72,-0.00448,-41.15,,,,,,,
990.77,-0.00443,-34.02,,,,,,,
990.8,-0.0044,-31.07,,,,,,,
990.82,-0.00438,-28.42,,,,,,,
990.87,-0.00433,-23.02,,,,,,,
990.93,-0.00428,-16.76,,,,,,,
990.98,-0.00423,-10.8,,,,,,,
991.03,-0.00418,-5.43,,,,,,,
991.08,-0.00413,-0.35,,,,,,,
991.14,-0.00407,6.12,,,,,,,
991.19,-0.00402,10.75,,,,,,,
991.24,-0.00397,15.69,,,,,,,
991.3,-0.00392,21.05,,,,,,,
991.3,-0.00392,21.1,,,,,,,
991.35,-0.00387,25.59,,,,,,,
991.4,-0.00382,30.41,,,,,,,
991.47,-0.00377,34.01,,,,,,,
991.57,-0.00372,36.84,,,,,,,
991.65,-0.00367,40.77,,,,,,,
991.7,-0.00362,45.89,,,,,,,
991.74,-0.00357,51.41,,,,,,,
991.77,-0.00352,56.74,,,,,,,
991.8,-0.00348,60.04,,,,,,,
991.81,-0.00347,61.38,,,,,,,
991.86,-0.00342,65.0,,,,,,,
991.91,-0.00337,68.36,,,,,,,
991.98,-0.00332,71.69,,,,,,,
992.04,-0.00327,75.19,,,,,,,
992.1,-0.00322,78.62,,,,,,,
992.16,-0.00317,81.99,,,,,,,
992.21,-0.00311,85.65,,,,,,,
992.26,-0.00306,89.88,,,,,,,
992.3,-0.00301,94.31,,,,,,,
992.3,-0.00301,94.42,,,,,,,
992.33,-0.00296,98.53,,,,,,,
992.37,-0.00291,102.58,,,,,,,
992.4,-0.00286,106.38,,,,,,,
992.43,-0.00281,109.83,,,,,,,
992.47,-0.00276,112.74,,,,,,,
992.51,-0.00271,115.36,,,,,,,
992.55,-0.00266,117.39,,,,,,,
992.59,-0.00261,119.11,,,,,,,
992.63,-0.00256,120.44,,,,,,,
992.68,-0.00251,121.55,,,,,,,
992.73,-0.00246,122.6,,,,,,,
992.78,-0.00241,123.37,,,,,,,
992.8,-0.00239,123.76,,,,,,,
992.83,-0.00236,124.12,,,,,,,
992.88,-0.00231,125.07,,,,,,,
992.93,-0.00226,125.82,,,,,,,
992.98,-0.00221,126.66,,,,,,,
993.03,-0.00215,127.03,,,,,,,
993.07,-0.0021,127.74,,,,,,,
993.12,-0.00205,128.29,,,,,,,
993.17,-0.002,128.43,,,,,,,
993.22,-0.00195,128.61,,,,,,,
993.28,-0.0019,128.83,,,,,,,
993.3,-0.00188,128.94,,,,,,,
993.33,-0.00185,129.0,,,,,,,
993.38,-0.0018,129.17,,,,,,,
993.43,-0.00175,129.69,,,,,,,
993.48,-0.0017,129.98,,,,,,,
993.54,-0.00165,130.57,,,,,,,
993.58,-0.0016,130.84,,,,,,,
993.63,-0.00155,131.27,,,,,,,
993.68,-0.0015,131.46,,,,,,,
993.72,-0.00144,131.68,,,,,,,
993.77,-0.00139,131.53,,,,,,,
993.8,-0.00136,131.28,,,,,,,
993.82,-0.00134,131.16,,,,,,,
993.88,-0.00129,130.67,,,,,,,
993.93,-0.00124,130.59,,,,,,,
993.98,-0.00119,130.63,,,,,,,
994.03,-0.00114,130.21,,,,,,,
994.08,-0.00109,130.63,,,,,,,
994.13,-0.00104,130.52,,,,,,,
994.18,-0.00099,130.52,,,,,,,
994.23,-0.00094,130.79,,,,,,,
994.28,-0.00089,130.72,,,,,,,
994.3,-0.00086,130.87,,,,,,,
994.33,-0.00084,130.9,,,,,,,
994.38,-0.00079,130.76,,,,,,,
994.43,-0.00074,130.57,,,,,,,
994.47,-0.00069,130.42,,,,,,,
994.53,-0.00063,130.14,,,,,,,
994.59,-0.00058,129.96,,,,,,,
994.64,-0.00053,130.01,,,,,,,
994.69,-0.00048,130.3,,,,,,,
994.74,-0.00043,130.45,,,,,,,
994.79,-0.00038,130.9,,,,,,,
994.8,-0.00037,130.85,,,,,,,
994.84,-0.00033,130.87,,,,,,,
994.89,-0.00028,130.98,,,,,,,
994.94,-0.00023,131.36,,,,,,,
994.99,-0.00018,131.36,,,,,,,
995.04,-0.00013,131.6,,,,,,,
1960.54,0.00497,134.9,,,,,,,
1960.61,0.00502,132.31,,,,,,,
1960.71,0.00497,114.2,,,,,,,
1960.75,0.00492,105.11,,,,,,,
1960.79,0.00487,96.9,,,,,,,
1960.8,0.00485,94.28,,,,,,,
1960.82,0.00482,89.69,,,,,,,
1960.86,0.00477,82.87,,,,,,,
1960.9,0.00472,76.02,,,,,,,
1960.95,0.00467,70.04,,,,,,,
1961.0,0.00462,63.44,,,,,,,
1961.06,0.00456,57.1,,,,,,,
1961.11,0.00451,51.49,,,,,,,
1961.16,0.00446,45.95,,,,,,,
1961.22,0.00441,39.94,,,,,,,
1961.27,0.00436,34.38,,,,,,,
1961.3,0.00433,31.5,,,,,,,
1961.33,0.00431,28.86,,,,,,,
1961.38,0.00426,23.81,,,,,,,
1961.43,0.00421,18.47,,,,,,,
1961.49,0.00416,13.1,,,,,,,
1961.54,0.00411,8.08,,,,,,,
1961.59,0.00406,3.61,,,,,,,
1961.64,0.00401,-1.17,,,,,,,
1961.7,0.00396,-5.52,,,,,,,
1961.8,0.00391,-6.99,,,,,,,
1961.82,0.0039,-7.75,,,,,,,
1961.9,0.00385,-11.9,,,,,,,
1961.98,0.0038,-16.64,,,,,,,
1962.04,0.00375,-21.73,,,,,,,
1962.09,0.0037,-26.86,,,,,,,
1962.13,0.00365,-33.33,,,,,,,
1962.16,0.0036,-37.48,,,,,,,
1962.19,0.00355,-42.23,,,,,,,
1962.25,0.0035,-46.66,,,,,,,
1962.29,0.00345,-50.35,,,,,,,
1962.3,0.00344,-50.75,,,,,,,
1962.35,0.0034,-55.52,,,,,,,
1962.38,0.00335,-59.19,,,,,,,
1962.41,0.00329,-63.64,,,,,,,
1962.45,0.00324,-68.44,,,,,,,
1962.48,0.00319,-72.87,,,,,,,
1962.52,0.00314,-77.01,,,,,,,
1962.56,0.00309,-80.89,,,,,,,
1962.6,0.00304,-84.27,,,,,,,
1962.64,0.00299,-86.9,,,,,,,
1962.69,0.00294,-89.75,,,,,,,
1962.73,0.00289,-92.0,,,,,,,
1962.78,0.00284,-94.28,,,,,,,
1962.8,0.00282,-95.17,,,,,,,
1962.83,0.00279,-96.49,,,,,,,
1962.88,0.00274,-98.31,,,,,,,
1962.93,0.00269,-100.31,,,,,,,
1962.98,0.00264,-101.87,,,,,,,
1963.03,0.00259,-103.81,,,,,,,
1963.08,0.00253,-105.26,,,,,,,
1963.13,0.00248,-106.78,,,,,,,
1963.18,0.00243,-108.23,,,,,,,
1963.23,0.00238,-109.68,,,,,,,
1963.28,0.00233,-111.18,,,,,,,
1963.3,0.00231,-111.63,,,,,,,
1963.33,0.00228,-112.46,,,,,,,
1963.38,0.00223,-113.54,,,,,,,
1963.43,0.00218,-114.73,,,,,,,
1963.48,0.00213,-115.6,,,,,,,
1963.53,0.00208,-116.29,,,,,,,
1963.58,0.00203,-117.32,,,,,,,
1963.63,0.00198,-117.87,,,,,,,
1963.68,0.00193,-118.44,,,,,,,
1963.73,0.00188,-119.14,,,,,,,
1963.78,0.00183,-119.47,,,,,,,
1963.8,0.0018,-119.75,,,,,,,
1963.83,0.00177,-119.93,,,,,,,
1963.88,0.00172,-120.63,,,,,,,
1963.93,0.00167,-120.97,,,,,,,
1963.98,0.00162,-121.36,,,,,,,
1964.03,0.00157,-121.91,,,,,,,
1964.08,0.00152,-122.04,,,,,,,
1964.13,0.00147,-122.38,,,,,,,
1964.18,0.00142,-122.6,,,,,,,
1964.23,0.00137,-122.63,,,,,,,
1964.28,0.00132,-122.7,,,,,,,
1964.3,0.00129,-122.68,,,,,,,
1964.33,0.00127,-122.59,,,,,,,
1964.38,0.00122,-122.67,,,,,,,
1964.43,0.00117,-122.54,,,,,,,
1964.48,0.00111,-122.46,,,,,,,
1964.53,0.00106,-122.63,,,,,,,
1964.59,0.00101,-122.78,,,,,,,
1964.64,0.00096,-123.03,,,,,,,
1964.68,0.00091,-123.29,,,,,,,
1964.74,0.00086,-123.64,,,,,,,
1964.79,0.00081,-123.82,,,,,,,
1964.8,0.0008,-123.96,,,,,,,
1964.84,0.00076,-124.01,,,,,,,
1964.88,0.00071,-124.41,,,,,,,
1964.94,0.00066,-124.4,,,,,,,
1964.99,0.00061,-124.73,,,,,,,
1965.04,0.00056,-125.06,,,,,,,
1965.08,0.00051,-125.21,,,,,,,
1965.14,0.00046,-125.4,,,,,,,
1965.19,0.00041,-125.78,,,,,,,
1965.23,0.00036,-126.04,,,,,,,
1965.28,0.00031,-125.82,,,,,,,
1965.3,0.00029,-125.79,,,,,,,
1965.33,0.00026,-125.76,,,,,,,
1965.38,0.00021,-125.61,,,,,,,
1965.44,0.00016,-125.37,,,,,,,
1965.49,0.00011,-125.36,,,,,,,
1965.54,6e-05,-125.01,,,,,,,
1965.59,1e-05,-124.99,,,,,,,
1965.64,-4e-05,-125.24,,,,,,,
1965.69,-0.0001,-125.52,,,,,,,
1965.74,-0.00015,-125.8,,,,,,,
1965.79,-0.0002,-126.1,,,,,,,
1965.8,-0.00021,-126.11,,,,,,,
1965.84,-0.00025,-126.08,,,,,,,
1965.89,-0.0003,-126.33,,,,,,,
1965.94,-0.00035,-126.26,,,,,,,
1965.99,-0.0004,-126.3,,,,,,,
1966.04,-0.00045,-126.47,,,,,,,
1966.09,-0.0005,-126.4,,,,,,,
1966.14,-0.00055,-126.48,,,,,,,
1966.19,-0.0006,-126.45,,,,,,,
1966.24,-0.00065,-126.53,,,,,,,
1966.29,-0.0007,-126.61,,,,,,,
1966.3,-0.00071,-126.49,,,,,,,
1966.34,-0.00075,-126.58,,,,,,,
1966.4,-0.0008,-126.47,,,,,,,
1966.45,-0.00086,-126.62,,,,,,,
1966.5,-0.00091,-126.73,,,,,,,
1966.54,-0.00096,-127.02,,,,,,,
1966.59,-0.00101,-126.92,,,,,,,
1966.64,-0.00106,-126.74,,,,,,,
1966.69,-0.00111,-126.47,,,,,,,
1966.74,-0.00116,-126.24,,,,,,,
1966.79,-0.00121,-125.99,,,,,,,
1966.8,-0.00121,-125.97,,,,,,,
1966.85,-0.00126,-125.85,,,,,,,
1966.89,-0.00131,-125.85,,,,,,,
1966.95,-0.00136,-125.83,,,,,,,
1967.01,-0.00141,-126.18,,,,,,,
1967.05,-0.00146,-126.34,,,,,,,
1967.1,-0.00151,-126.94,,,,,,,
1967.15,-0.00156,-127.38,,,,,,,
1967.2,-0.00161,-127.35,,,,,,,
1967.25,-0.00166,-127.36,,,,,,,
1967.3,-0.00172,-127.2,,,,,,,
1967.35,-0.00177,-126.93,,,,,,,
1967.4,-0.00182,-126.77,,,,,,,
1967.45,-0.00187,-126.78,,,,,,,
1967.5,-0.00192,-126.82,,,,,,,
1967.56,-0.00197,-127.2,,,,,,,
1967.61,-0.00202,-127.64,,,,,,,
1967.65,-0.00207,-127.78,,,,,,,
1967.71,-0.00212,-128.03,,,,,,,
1967.75,-0.00217,-128.34,,,,,,,
1967.8,-0.00221,-128.33,,,,,,,
1967.81,-0.00222,-128.3,,,,,,,
1967.86,-0.00227,-128.43,,,,,,,
1967.9,-0.00232,-128.47,,,,,,,
1967.95,-0.00237,-128.15,,,,,,,
1968.01,-0.00242,-128.31,,,,,,,
1968.06,-0.00247,-128.29,,,,,,,
1968.11,-0.00252,-128.65,,,,,,,
1968.17,-0.00257,-129.0,,,,,,,
1968.22,-0.00263,-129.38,,,,,,,
1968.26,-0.00268,-129.78,,,,,,,
1968.3,-0.00271,-130.24,,,,,,,
1968.31,-0.00273,-130.33,,,,,,,
1968.37,-0.00278,-130.6,,,,,,,
1968.42,-0.00283,-130.9,,,,,,,
1968.47,-0.00288,-131.11,,,,,,,
1968.51,-0.00293,-131.31,,,,,,,
1968.57,-0.00298,-131.42,,,,,,,
1968.61,-0.00303,-131.32,,,,,,,
1968.66,-0.00308,-131.59,,,,,,,
1968.71,-0.00313,-131.37,,,,,,,
1968.76,-0.00318,-131.34,,,,,,,
1968.8,-0.00322,-131.48,,,,,,,
1968.81,-0.00323,-131.41,,,,,,,
1968.87,-0.00328,-131.37,,,,,,,
1968.91,-0.00333,-131.48,,,,,,,
1968.97,-0.00338,-131.53,,,,,,,
1969.01,-0.00343,-131.42,,,,,,,
1969.06,-0.00348,-131.32,,,,,,,
1969.12,-0.00353,-131.26,,,,,,,
1969.17,-0.00358,-131.1,,,,,,,
1969.22,-0.00364,-131.18,,,,,,,
1969.27,-0.00369,-131.65,,,,,,,
1969.3,-0.00372,-131.79,,,,,,,
1969.32,-0.00374,-131.9,,,,,,,
1969.37,-0.00379,-131.98,,,,,,,
1969.42,-0.00384,-132.17,,,,,,,
1969.48,-0.00389,-132.67,,,,,,,
1969.52,-0.00394,-133.0,,,,,,,
1969.57,-0.00399,-133.19,,,,,,,
1969.61,-0.00404,-132.97,,,,,,,
1969.66,-0.00409,-132.81,,,,,,,
1969.72,-0.00414,-132.5,,,,,,,
1969.77,-0.00419,-132.33,,,,,,,
1969.8,-0.00422,-132.22,,,,,,,
1969.82,-0.00424,-132.08,,,,,,,
1969.88,-0.00429,-132.17,,,,,,,
1969.92,-0.00434,-132.16,,,,,,,
1969.97,-0.00439,-131.9,,,,,,,
1970.02,-0.00445,-132.06,,,,,,,
1970.08,-0.0045,-131.99,,,,,,,
1970.12,-0.00455,-131.95,,,,,,,
1970.17,-0.0046,-131.97,,,,,,,
1970.23,-0.00465,-132.06,,,,,,,
1970.28,-0.0047,-132.0,,,,,,,
1970.3,-0.00473,-132.06,,,,,,,
1970.33,-0.00475,-131.92,,,,,,,
1970.38,-0.0048,-132.15,,,,,,,
1970.44,-0.00485,-132.26,,,,,,,
1970.48,-0.0049,-132.47,,,,,,,
1970.53,-0.00495,-132.58,,,,,,,
1970.58,-0.005,-132.06,,,,,,,
1970.73,-0.00495,-107.57,,,,,,,
1970.77,-0.0049,-99.69,,,,,,,
1970.8,-0.00485,-91.18,,,,,,,
1970.84,-0.0048,-82.88,,,,,,,
1970.87,-0.00475,-76.46,,,,,,,
1970.92,-0.0047,-67.82,,,,,,,
1970.96,-0.00465,-62.12,,,,,,,
1971.01,-0.0046,-55.95,,,,,,,
1971.07,-0.00455,-49.38,,,,,,,
1971.14,-0.0045,-41.27,,,,,,,
1971.19,-0.00445,-35.52,,,,,,,
1971.23,-0.0044,-30.99,,,,,,,
1971.28,-0.00435,-24.69,,,,,,,
1971.3,-0.00433,-22.61,,,,,,,
1971.34,-0.0043,-17.97,,,,,,,
1971.39,-0.00424,-13.07,,,,,,,
1971.45,-0.00419,-6.82,,,,,,,
1971.5,-0.00414,-1.18,,,,,,,
1971.55,-0.00409,3.99,,,,,,,
1971.61,-0.00404,9.59,,,,,,,
1971.66,-0.00399,14.51,,,,,,,
1971.71,-0.00394,19.24,,,,,,,
1971.76,-0.00389,23.99,,,,,,,
1971.8,-0.00385,27.36,,,,,,,
1971.82,-0.00384,28.8,,,,,,,
1971.88,-0.00379,32.98,,,,,,,
1971.97,-0.00374,36.12,,,,,,,
1972.06,-0.00369,39.38,,,,,,,
1972.12,-0.00364,44.3,,,,,,,
1972.16,-0.00359,49.97,,,,,,,
1972.19,-0.00354,55.33,,,,,,,
1972.23,-0.00349,60.09,,,,,,,
1972.27,-0.00344,64.18,,,,,,,
1972.3,-0.00341,65.98,,,,,,,
1972.33,-0.00339,67.58,,,,,,,
1972.39,-0.00334,70.88,,,,,,,
1972.45,-0.00328,74.06,,,,,,,
1972.52,-0.00323,77.5,,,,,,,
1972.57,-0.00318,81.07,,,,,,,
1972.63,-0.00313,84.45,,,,,,,
1972.68,-0.00308,88.31,,,,,,,
1972.72,-0.00303,92.71,,,,,,,
1972.75,-0.00298,96.72,,,,,,,
1972.78,-0.00293,100.81,,,,,,,
1972.8,-0.0029,102.81,,,,,,,
1972.82,-0.00288,104.81,,,,,,,
1972.85,-0.00283,108.21,,,,,,,
1972.89,-0.00278,111.47,,,,,,,
1972.92,-0.00273,114.04,,,,,,,
1972.96,-0.00268,116.48,,,,,,,
1973.0,-0.00263,117.98,,,,,,,
1973.05,-0.00258,119.53,,,,,,,
1973.09,-0.00252,120.73,,,,,,,
1973.14,-0.00247,121.54,,,,,,,
1973.19,-0.00242,122.23,,,,,,,
1973.24,-0.00237,122.92,,,,,,,
1973.29,-0.00232,123.32,,,,,,,
1973.3,-0.00231,123.35,,,,,,,
1973.34,-0.00227,123.77,,,,,,,
1973.39,-0.00222,124.12,,,,,,,
1973.44,-0.00217,124.64,,,,,,,
1973.49,-0.00212,124.99,,,,,,,
1973.54,-0.00207,125.35,,,,,,,
1973.59,-0.00202,125.68,,,,,,,
1973.64,-0.00197,125.8,,,,,,,
1973.69,-0.00192,125.92,,,,,,,
1973.74,-0.00187,126.04,,,,,,,
1973.79,-0.00182,126.31,,,,,,,
1973.8,-0.00181,126.33,,,,,,,
1973.84,-0.00177,126.59,,,,,,,
1973.89,-0.00172,126.75,,,,,,,
1973.94,-0.00167,127.01,,,,,,,
1973.99,-0.00162,127.28,,,,,,,
1974.04,-0.00156,127.64,,,,,,,
1974.09,-0.00151,127.84,,,,,,,
1974.14,-0.00146,128.09,,,,,,,
1974.19,-0.00141,128.24,,,,,,,
1974.24,-0.00136,128.42,,,,,,,
1974.29,-0.00131,128.53,,,,,,,
1974.3,-0.0013,128.51,,,,,,,
1974.34,-0.00126,128.62,,,,,,,
1974.39,-0.00121,128.82,,,,,,,
1974.44,-0.00116,129.01,,,,,,,
1974.49,-0.00111,129.08,,,,,,,
1974.54,-0.00106,129.08,,,,,,,
1974.59,-0.00101,129.08,,,,,,,
1974.64,-0.00096,128.95,,,,,,,
1974.69,-0.00091,129.1,,,,,,,
1974.74,-0.00086,129.16,,,,,,,
1974.8,-0.00081,129.2,,,,,,,
1974.8,-0.0008,129.2,,,,,,,
1974.84,-0.00076,129.38,,,,,,,
1974.89,-0.00071,129.42,,,,,,,
1974.95,-0.00066,129.62,,,,,,,
1974.99,-0.0006,129.68,,,,,,,
1975.04,-0.00055,129.78,,,,,,,
1975.09,-0.0005,129.82,,,,,,,
1975.14,-0.00045,129.85,,,,,,,
1975.2,-0.0004,129.77,,,,,,,
1975.25,-0.00035,129.67,,,,,,,
1975.3,-0.0003,129.83,,,,,,,
1975.3,-0.00029,129.81,,,,,,,
1975.35,-0.00025,130.0,,,,,,,
1975.4,-0.0002,129.97,,,,,,,
1975.45,-0.00015,129.93,,,,,,,
1975.5,-0.0001,130.04,,,,,,,
1975.56,-5e-05,130.54,,,,,,,
1975.61,0.0,130.61,,,,,,,
1975.65,6e-05,130.53,,,,,,,
1975.7,0.00011,130.77,,,,,,,
1975.75,0.00016,130.7,,,,,,,
1975.8,0.00021,130.75,,,,,,,
1975.8,0.00021,130.85,,,,,,,
1975.85,0.00026,130.61,,,,,,,
1975.91,0.00031,130.73,,,,,,,
1975.96,0.00036,130.7,,,,,,,
1976.01,0.00041,130.78,,,,,,,
1976.06,0.00046,131.11,,,,,,,
1976.11,0.00051,131.32,,,,,,,
1976.17,0.00056,131.56,,,,,,,
1976.22,0.00061,131.63,,,,,,,
1976.27,0.00067,131.79,,,,,,,
1976.3,0.00071,131.67,,,,,,,
1976.31,0.00072,131.76,,,,,,,
1976.37,0.00077,131.84,,,,,,,
1976.41,0.00082,132.08,,,,,,,
1976.46,0.00087,132.03,,,,,,,
1976.51,0.00092,131.86,,,,,,,
1976.56,0.00097,131.55,,,,,,,
1976.61,0.00102,131.52,,,,,,,
1976.66,0.00107,131.23,,,,,,,
1976.71,0.00112,131.05,,,,,,,
1976.77,0.00117,130.92,,,,,,,
1976.8,0.00121,131.02,,,,,,,
1976.82,0.00122,131.18,,,,,,,
1976.87,0.00127,131.54,,,,,,,
1976.92,0.00132,131.66,,,,,,,
1976.97,0.00137,131.91,,,,,,,
1977.02,0.00142,132.09,,,,,,,
1977.07,0.00148,132.24,,,,,,,
1977.12,0.00153,132.14,,,,,,,
1977.17,0.00158,131.99,,,,,,,
1977.22,0.00163,132.06,,,,,,,
1977.27,0.00168,132.05,,,,,,,
1977.3,0.00171,132.07,,,,,,,
1977.32,0.00173,132.21,,,,,,,
1977.37,0.00178,132.19,,,,,,,
1977.42,0.00183,132.39,,,,,,,
1977.48,0.00188,132.5,,,,,,,
1977.52,0.00193,132.62,,,,,,,
1977.57,0.00198,132.85,,,,,,,
1977.62,0.00203,133.11,,,,,,,
1977.67,0.00208,133.2,,,,,,,
1977.72,0.00213,133.3,,,,,,,
1977.77,0.00218,133.42,,,,,,,
1977.8,0.00221,133.18,,,,,,,
1977.82,0.00223,133.31,,,,,,,
1977.88,0.00228,133.25,,,,,,,
1977.93,0.00233,133.32,,,,,,,
1977.98,0.00238,133.39,,,,,,,
1978.03,0.00244,133.4,,,,,,,
1978.07,0.00249,133.79,,,,,,,
1978.12,0.00254,133.7,,,,,,,
1978.17,0.00259,133.52,,,,,,,
1978.22,0.00264,133.36,,,,,,,
1978.27,0.00269,132.91,,,,,,,
1978.3,0.00272,132.62,,,,,,,
1978.32,0.00274,132.59,,,,,,,
1978.38,0.00279,132.0,,,,,,,
1978.42,0.00284,132.02,,,,,,,
1978.48,0.00289,131.77,,,,,,,
1978.53,0.00294,132.02,,,,,,,
1978.58,0.00299,132.08,,,,,,,
1978.64,0.00304,132.38,,,,,,,
1978.69,0.00309,132.62,,,,,,,
1978.74,0.00314,133.01,,,,,,,
1978.78,0.00319,133.33,,,,,,,
1978.8,0.00321,133.42,,,,,,,
1978.83,0.00324,133.78,,,,,,,
1978.88,0.00329,134.09,,,,,,,
1978.93,0.00335,134.27,,,,,,,
1978.98,0.0034,134.36,,,,,,,
1979.03,0.00345,134.29,,,,,,,
1979.08,0.0035,133.96,,,,,,,
1979.13,0.00355,134.05,,,,,,,
1979.18,0.0036,133.97,,,,,,,
1979.23,0.00365,133.95,,,,,,,
1979.28,0.0037,134.12,,,,,,,
1979.3,0.00372,133.82,,,,,,,
1979.34,0.00375,134.13,,,,,,,
1979.39,0.0038,134.03,,,,,,,
1979.44,0.00385,134.2,,,,,,,
1979.48,0.0039,134.33,,,,,,,
1979.53,0.00395,134.29,,,,,,,
1979.58,0.004,134.12,,,,,,,
1979.64,0.00405,133.95,,,,,,,
1979.68,0.0041,133.97,,,,,,,
1979.74,0.00415,133.97,,,,,,,
1979.79,0.0042,134.22,,,,,,,
1979.8,0.00421,134.03,,,,,,,
1979.85,0.00425,134.58,,,,,,,
1979.89,0.0043,135.0,,,,,,,
1979.94,0.00436,135.2,,,,,,,
1979.99,0.00441,135.66,,,,,,,
1980.04,0.00446,135.61,,,,,,,
1980.09,0.00451,135.71,,,,,,,
1980.14,0.00456,135.79,,,,,,,
1980.19,0.00461,135.67,,,,,,,
1980.24,0.00466,135.79,,,,,,,
1980.29,0.00471,135.82,,,,,,,
1980.3,0.00472,135.63,,,,,,,
1980.34,0.00476,135.73,,,,,,,
1980.39,0.00481,135.63,,,,,,,
1980.44,0.00486,135.53,,,,,,,
1980.5,0.00491,135.32,,,,,,,
3961.44,0.00499,131.85,,,,,,,
3961.62,0.00494,106.39,,,,,,,
3961.65,0.00489,98.45,,,,,,,
3961.69,0.00484,91.07,,,,,,,
3961.73,0.00479,83.65,,,,,,,
3961.76,0.00474,77.97,,,,,,,
3961.8,0.00469,72.05,,,,,,,
3961.81,0.00469,71.17,,,,,,,
3961.85,0.00464,65.31,,,,,,,
3961.91,0.00458,59.18,,,,,,,
3961.97,0.00453,53.18,,,,,,,
3962.02,0.00448,47.55,,,,,,,
3962.08,0.00443,42.0,,,,,,,
3962.13,0.00438,36.56,,,,,,,
3962.18,0.00433,31.5,,,,,,,
3962.23,0.00428,26.31,,,,,,,
3962.29,0.00423,21.0,,,,,,,
3962.3,0.00422,19.64,,,,,,,
3962.34,0.00418,15.71,,,,,,,
3962.39,0.00413,10.96,,,,,,,
3962.45,0.00408,6.06,,,,,,,
3962.5,0.00403,1.32,,,,,,,
3962.56,0.00398,-3.35,,,,,,,
3962.63,0.00393,-5.69,,,,,,,
3962.76,0.00388,-9.52,,,,,,,
3962.8,0.00384,-12.39,,,,,,,
3962.83,0.00383,-14.05,,,,,,,
3962.89,0.00378,-18.41,,,,,,,
3962.94,0.00373,-23.44,,,,,,,
3962.99,0.00368,-28.9,,,,,,,
3963.02,0.00362,-34.42,,,,,,,
3963.05,0.00357,-38.93,,,,,,,
3963.09,0.00352,-43.05,,,,,,,
3963.14,0.00347,-46.71,,,,,,,
3963.19,0.00342,-49.99,,,,,,,
3963.24,0.00337,-54.42,,,,,,,
3963.27,0.00332,-58.82,,,,,,,
3963.3,0.00328,-62.65,,,,,,,
3963.31,0.00327,-63.44,,,,,,,
3963.34,0.00322,-67.22,,,,,,,
3963.37,0.00317,-71.27,,,,,,,
3963.41,0.00312,-74.78,,,,,,,
3963.45,0.00307,-77.93,,,,,,,
3963.48,0.00302,-80.72,,,,,,,
3963.53,0.00297,-83.08,,,,,,,
3963.58,0.00292,-85.26,,,,,,,
3963.63,0.00287,-87.08,,,,,,,
3963.68,0.00282,-89.01,,,,,,,
3963.73,0.00277,-90.79,,,,,,,
3963.78,0.00271,-92.59,,,,,,,
3963.8,0.0027,-93.38,,,,,,,
3963.83,0.00266,-94.32,,,,,,,
3963.88,0.00261,-96.24,,,,,,,
3963.93,0.00256,-98.02,,,,,,,
3963.98,0.00251,-99.43,,,,,,,
3964.03,0.00246,-101.29,,,,,,,
3964.08,0.00241,-102.82,,,,,,,
3964.13,0.00236,-104.28,,,,,,,
3964.18,0.00231,-105.8,,,,,,,
3964.23,0.00226,-107.17,,,,,,,
3964.28,0.00221,-108.66,,,,,,,
3964.3,0.00219,-109.07,,,,,,,
3964.33,0.00216,-109.75,,,,,,,
3964.38,0.00211,-110.8,,,,,,,
3964.42,0.00206,-111.7,,,,,,,
3964.48,0.00201,-112.48,,,,,,,
3964.52,0.00196,-112.93,,,,,,,
3964.57,0.00191,-113.68,,,,,,,
3964.62,0.00186,-114.26,,,,,,,
3964.67,0.00181,-114.61,,,,,,,
3964.72,0.00176,-114.85,,,,,,,
3964.78,0.00171,-115.2,,,,,,,
3964.8,0.00168,-115.36,,,,,,,
3964.83,0.00166,-115.59,,,,,,,
3964.87,0.00161,-115.86,,,,,,,
3964.92,0.00156,-116.39,,,,,,,
3964.97,0.00151,-116.5,,,,,,,
3965.02,0.00146,-116.93,,,,,,,
3965.07,0.00141,-117.11,,,,,,,
3965.13,0.00136,-117.54,,,,,,,
3965.17,0.00131,-117.95,,,,,,,
3965.22,0.00125,-118.07,,,,,,,
3965.28,0.0012,-118.33,,,,,,,
3965.3,0.00118,-118.6,,,,,,,
3965.33,0.00115,-118.71,,,,,,,
3965.38,0.0011,-119.0,,,,,,,
3965.43,0.00105,-119.44,,,,,,,
3965.48,0.001,-119.78,,,,,,,
3965.52,0.00095,-120.12,,,,,,,
3965.57,0.0009,-120.45,,,,,,,
3965.62,0.00085,-120.49,,,,,,,
3965.67,0.0008,-120.3,,,,,,,
3965.72,0.00075,-119.84,,,,,,,
3965.77,0.0007,-119.6,,,,,,,
3965.8,0.00067,-119.36,,,,,,,
3965.82,0.00065,-119.33,,,,,,,
3965.88,0.0006,-119.26,,,,,,,
3965.93,0.00055,-119.29,,,,,,,
3965.98,0.0005,-119.48,,,,,,,
3966.03,0.00045,-119.97,,,,,,,
3966.07,0.0004,-120.08,,,,,,,
3966.13,0.00035,-120.3,,,,,,,
3966.18,0.0003,-120.46,,,,,,,
3966.23,0.00025,-120.44,,,,,,,
3966.27,0.00019,-120.52,,,,,,,
3966.3,0.00017,-120.48,,,,,,,
3966.32,0.00014,-120.7,,,,,,,
3966.37,9e-05,-120.38,,,,,,,
3966.43,4e-05,-120.43,,,,,,,
3966.48,-1e-05,-120.55,,,,,,,
3966.53,-6e-05,-120.6,,,,,,,
3966.59,-0.00011,-120.85,,,,,,,
3966.63,-0.00016,-120.96,,,,,,,
3966.69,-0.00021,-121.37,,,,,,,
3966.73,-0.00026,-121.6,,,,,,,
3966.78,-0.00031,-121.88,,,,,,,
3966.8,-0.00033,-121.98,,,,,,,
3966.83,-0.00036,-122.1,,,,,,,
3966.88,-0.00041,-122.14,,,,,,,
3966.93,-0.00046,-122.45,,,,,,,
3966.98,-0.00051,-122.39,,,,,,,
3967.03,-0.00056,-122.1,,,,,,,
3967.08,-0.00061,-122.28,,,,,,,
3967.14,-0.00066,-122.28,,,,,,,
3967.19,-0.00071,-122.55,,,,,,,
3967.24,-0.00076,-122.69,,,,,,,
3967.29,-0.00082,-123.03,,,,,,,
3967.3,-0.00083,-122.99,,,,,,,
3967.34,-0.00087,-122.95,,,,,,,
3967.38,-0.00092,-123.24,,,,,,,
3967.44,-0.00097,-123.44,,,,,,,
3967.49,-0.00102,-123.47,,,,,,,
3967.54,-0.00107,-123.57,,,,,,,
3967.59,-0.00112,-123.61,,,,,,,
3967.64,-0.00117,-123.77,,,,,,,
3967.69,-0.00122,-123.83,,,,,,,
3967.74,-0.00127,-124.12,,,,,,,
3967.79,-0.00132,-124.16,,,,,,,
3967.8,-0.00134,-124.17,,,,,,,
3967.84,-0.00137,-124.06,,,,,,,
3967.89,-0.00142,-124.35,,,,,,,
3967.94,-0.00147,-124.43,,,,,,,
3967.99,-0.00152,-124.32,,,,,,,
3968.04,-0.00157,-124.63,,,,,,,
3968.1,-0.00162,-124.73,,,,,,,
3968.15,-0.00167,-124.88,,,,,,,
3968.2,-0.00173,-125.24,,,,,,,
3968.25,-0.00178,-125.78,,,,,,,
3968.29,-0.00183,-126.07,,,,,,,
3968.3,-0.00183,-126.01,,,,,,,
3968.35,-0.00188,-126.19,,,,,,,
3968.39,-0.00193,-126.62,,,,,,,
3968.44,-0.00198,-126.49,,,,,,,
3968.49,-0.00203,-126.51,,,,,,,
3968.54,-0.00208,-126.27,,,,,,,
3968.59,-0.00213,-126.04,,,,,,,
3968.64,-0.00218,-126.17,,,,,,,
3968.69,-0.00223,-126.09,,,,,,,
3968.74,-0.00228,-126.27,,,,,,,
3968.79,-0.00233,-126.11,,,,,,,
3968.8,-0.00234,-126.19,,,,,,,
3968.84,-0.00238,-126.13,,,,,,,
3968.89,-0.00243,-126.01,,,,,,,
3968.95,-0.00248,-125.89,,,,,,,
3969.0,-0.00253,-126.07,,,,,,,
3969.05,-0.00258,-126.09,,,,,,,
3969.1,-0.00263,-126.3,,,,,,,
3969.15,-0.00268,-126.44,,,,,,,
3969.2,-0.00273,-126.67,,,,,,,
3969.24,-0.00278,-126.9,,,,,,,
3969.29,-0.00283,-126.81,,,,,,,
3969.3,-0.00284,-126.68,,,,,,,
3969.35,-0.00289,-126.66,,,,,,,
3969.4,-0.00294,-126.49,,,,,,,
3969.45,-0.00299,-126.38,,,,,,,
3969.49,-0.00304,-126.51,,,,,,,
3969.55,-0.00309,-126.4,,,,,,,
3969.6,-0.00314,-126.41,,,,,,,
3969.65,-0.00319,-126.2,,,,,,,
3969.7,-0.00324,-126.45,,,,,,,
3969.75,-0.00329,-126.57,,,,,,,
3969.8,-0.00334,-126.51,,,,,,,
3969.8,-0.00334,-126.6,,,,,,,
3969.85,-0.00339,-126.72,,,,,,,
3969.9,-0.00344,-126.58,,,,,,,
3969.95,-0.00349,-126.65,,,,,,,
3970.0,-0.00354,-126.7,,,,,,,
3970.06,-0.00359,-126.7,,,,,,,
3970.1,-0.00364,-126.7,,,,,,,
3970.15,-0.0037,-127.01,,,,,,,
3970.2,-0.00375,-127.31,,,,,,,
3970.25,-0.0038,-127.25,,,,,,,
3970.3,-0.00385,-127.2,,,,,,,
3970.3,-0.00385,-127.22,,,,,,,
3970.35,-0.0039,-127.18,,,,,,,
3970.41,-0.00395,-127.25,,,,,,,
3970.46,-0.004,-127.34,,,,,,,
3970.51,-0.00405,-127.39,,,,,,,
3970.56,-0.0041,-127.82,,,,,,,
3970.61,-0.00415,-127.99,,,,,,,
3970.66,-0.0042,-128.39,,,,,,,
3970.71,-0.00425,-128.56,,,,,,,
3970.76,-0.0043,-128.62,,,,,,,
3970.8,-0.00435,-128.5,,,,,,,
3970.81,-0.00435,-128.5,,,,,,,
3970.86,-0.0044,-128.46,,,,,,,
3970.91,-0.00445,-128.34,,,,,,,
3970.96,-0.0045,-128.4,,,,,,,
3971.01,-0.00456,-128.24,,,,,,,
3971.06,-0.00461,-128.27,,,,,,,
3971.11,-0.00466,-128.58,,,,,,,
3971.16,-0.00471,-128.82,,,,,,,
3971.21,-0.00476,-129.11,,,,,,,
3971.27,-0.00481,-129.2,,,,,,,
3971.3,-0.00484,-129.19,,,,,,,
3971.31,-0.00486,-129.33,,,,,,,
3971.37,-0.00491,-129.24,,,,,,,
3971.42,-0.00496,-129.53,,,,,,,
3971.47,-0.00501,-128.18,,,,,,,
3971.61,-0.00496,-105.52,,,,,,,
3971.64,-0.00491,-97.17,,,,,,,
3971.68,-0.00485,-89.39,,,,,,,
3971.71,-0.0048,-81.73,,,,,,,
3971.75,-0.00475,-74.34,,,,,,,
3971.8,-0.0047,-65.92,,,,,,,
3971.8,-0.0047,-65.78,,,,,,,
3971.84,-0.00465,-60.26,,,,,,,
3971.9,-0.0046,-53.08,,,,,,,
3971.95,-0.00455,-46.1,,,,,,,
3972.01,-0.0045,-39.56,,,,,,,
3972.06,-0.00445,-34.09,,,,,,,
3972.11,-0.0044,-27.89,,,,,,,
3972.16,-0.00435,-22.13,,,,,,,
3972.22,-0.0043,-16.4,,,,,,,
3972.26,-0.00424,-11.38,,,,,,,
3972.3,-0.00421,-7.53,,,,,,,
3972.32,-0.00419,-5.2,,,,,,,
3972.38,-0.00414,-0.3,,,,,,,
3972.43,-0.00409,4.95,,,,,,,
3972.48,-0.00404,9.46,,,,,,,
3972.53,-0.00399,14.17,,,,,,,
3972.58,-0.00394,19.11,,,,,,,
3972.63,-0.00389,23.51,,,,,,,
3972.69,-0.00384,28.01,,,,,,,
3972.74,-0.00379,32.1,,,,,,,
3972.8,-0.00376,34.05,,,,,,,
3972.83,-0.00374,34.93,,,,,,,
3972.93,-0.00369,37.65,,,,,,,
3972.99,-0.00364,41.82,,,,,,,
3973.04,-0.00359,47.31,,,,,,,
3973.07,-0.00354,52.18,,,,,,,
3973.1,-0.00349,56.84,,,,,,,
3973.14,-0.00344,60.55,,,,,,,
3973.19,-0.00339,63.74,,,,,,,
3973.24,-0.00334,66.18,,,,,,,
3973.3,-0.00329,68.52,,,,,,,
3973.31,-0.00329,68.84,,,,,,,
3973.37,-0.00324,71.69,,,,,,,
3973.43,-0.00319,74.7,,,,,,,
3973.49,-0.00313,78.04,,,,,,,
3973.54,-0.00308,81.37,,,,,,,
3973.59,-0.00303,84.94,,,,,,,
3973.64,-0.00298,89.12,,,,,,,
3973.67,-0.00293,93.64,,,,,,,
3973.7,-0.00288,97.31,,,,,,,
3973.74,-0.00283,100.91,,,,,,,
3973.77,-0.00278,104.13,,,,,,,
3973.8,-0.00274,106.58,,,,,,,
3973.81,-0.00273,106.98,,,,,,,
3973.84,-0.00268,109.19,,,,,,,
3973.88,-0.00263,111.32,,,,,,,
3973.93,-0.00258,113.09,,,,,,,
3973.97,-0.00253,114.43,,,,,,,
3974.01,-0.00248,115.27,,,,,,,
3974.06,-0.00243,115.66,,,,,,,
3974.11,-0.00238,116.36,,,,,,,
3974.17,-0.00233,116.76,,,,,,,
3974.21,-0.00227,117.19,,,,,,,
3974.26,-0.00222,117.74,,,,,,,
3974.3,-0.00219,117.99,,,,,,,
3974.31,-0.00217,118.24,,,,,,,
3974.37,-0.00212,118.89,,,,,,,
3974.42,-0.00207,119.53,,,,,,,
3974.47,-0.00202,119.84,,,,,,,
3974.52,-0.00197,120.5,,,,,,,
3974.57,-0.00192,121.09,,,,,,,
3974.62,-0.00187,121.68,,,,,,,
3974.67,-0.00182,122.38,,,,,,,
3974.72,-0.00177,122.72,,,,,,,
3974.77,-0.00172,123.23,,,,,,,
3974.8,-0.00168,123.3,,,,,,,
3974.82,-0.00167,123.39,,,,,,,
3974.86,-0.00162,123.84,,,,,,,
3974.91,-0.00157,124.17,,,,,,,
3974.96,-0.00152,124.35,,,,,,,
3975.02,-0.00147,124.35,,,,,,,
3975.06,-0.00142,124.62,,,,,,,
3975.11,-0.00137,124.85,,,,,,,
3975.17,-0.00132,124.84,,,,,,,
3975.22,-0.00127,124.87,,,,,,,
3975.27,-0.00121,125.16,,,,,,,
3975.3,-0.00118,125.27,,,,,,,
3975.32,-0.00116,125.44,,,,,,,
3975.37,-0.00111,125.18,,,,,,,
3975.42,-0.00106,125.37,,,,,,,
3975.47,-0.00101,125.7,,,,,,,
3975.52,-0.00096,125.73,,,,,,,
3975.57,-0.00091,125.91,,,,,,,
3975.62,-0.00086,126.06,,,,,,,
3975.67,-0.00081,126.34,,,,,,,
3975.72,-0.00076,126.44,,,,,,,
3975.77,-0.00071,126.28,,,,,,,
3975.8,-0.00067,126.27,,,,,,,
3975.82,-0.00066,126.26,,,,,,,
3975.87,-0.00061,126.12,,,,,,,
3975.92,-0.00056,126.28,,,,,,,
3975.97,-0.00051,126.34,,,,,,,
3976.02,-0.00046,126.76,,,,,,,
3976.07,-0.00041,126.73,,,,,,,
3976.12,-0.00036,126.95,,,,,,,
3976.17,-0.00031,126.98,,,,,,,
3976.22,-0.00025,127.06,,,,,,,
3976.27,-0.0002,127.03,,,,,,,
3976.3,-0.00017,126.99,,,,,,,
3976.32,-0.00015,126.94,,,,,,,
3976.37,-0.0001,127.03,,,,,,,
3976.42,-5e-05,127.45,,,,,,,
3976.47,-0.0,127.41,,,,,,,
3976.53,5e-05,127.33,,,,,,,
3976.58,0.0001,127.25,,,,,,,
3976.63,0.00015,127.32,,,,,,,
3976.68,0.0002,127.75,,,,,,,
3976.73,0.00025,128.11,,,,,,,
3976.78,0.0003,128.13,,,,,,,
3976.8,0.00032,128.19,,,,,,,
3976.83,0.00035,128.33,,,,,,,
3976.88,0.0004,128.43,,,,,,,
3976.93,0.00045,128.67,,,,,,,
3976.98,0.0005,128.63,,,,,,,
3977.03,0.00055,128.72,,,,,,,
3977.08,0.0006,129.03,,,,,,,
3977.13,0.00066,128.98,,,,,,,
3977.19,0.00071,129.13,,,,,,,
3977.24,0.00076,129.45,,,,,,,
3977.28,0.00081,129.79,,,,,,,
3977.3,0.00083,129.8,,,,,,,
3977.33,0.00086,129.81,,,,,,,
3977.38,0.00091,129.84,,,,,,,
3977.43,0.00096,129.95,,,,,,,
3977.48,0.00101,130.07,,,,,,,
3977.53,0.00106,129.75,,,,,,,
3977.58,0.00111,129.62,,,,,,,
3977.64,0.00116,129.38,,,,,,,
3977.68,0.00121,129.47,,,,,,,
3977.73,0.00126,129.54,,,,,,,
3977.79,0.00131,129.52,,,,,,,
3977.8,0.00133,129.49,,,,,,,
3977.83,0.00136,129.47,,,,,,,
3977.88,0.00141,129.81,,,,,,,
3977.93,0.00146,129.83,,,,,,,
3977.98,0.00151,129.87,,,,,,,
3978.04,0.00156,129.57,,,,,,,
3978.09,0.00161,129.66,,,,,,,
3978.14,0.00166,129.68,,,,,,,
3978.19,0.00172,129.97,,,,,,,
3978.24,0.00177,130.26,,,,,,,
3978.29,0.00182,130.5,,,,,,,
3978.3,0.00183,130.33,,,,,,,
3978.34,0.00187,130.37,,,,,,,
3978.39,0.00192,130.47,,,,,,,
3978.44,0.00197,130.65,,,,,,,
3978.49,0.00202,130.59,,,,,,,
3978.54,0.00207,130.49,,,,,,,
3978.59,0.00212,130.39,,,,,,,
3978.64,0.00217,130.47,,,,,,,
3978.69,0.00222,130.46,,,,,,,
3978.74,0.00227,130.52,,,,,,,
3978.79,0.00232,130.62,,,,,,,
3978.8,0.00233,130.49,,,,,,,
3978.84,0.00237,130.33,,,,,,,
3978.89,0.00242,130.29,,,,,,,
3978.94,0.00247,130.48,,,,,,,
3978.99,0.00252,130.69,,,,,,,
3979.04,0.00257,130.93,,,,,,,
3979.09,0.00263,130.95,,,,,,,
3979.14,0.00268,131.04,,,,,,,
3979.19,0.00273,130.92,,,,,,,
3979.24,0.00278,130.99,,,,,,,
3979.29,0.00283,130.27,,,,,,,
3979.3,0.00284,130.44,,,,,,,
3979.34,0.00288,130.4,,,,,,,
3979.39,0.00293,130.23,,,,,,,
3979.45,0.00298,130.25,,,,,,,
3979.5,0.00303,130.3,,,,,,,
3979.55,0.00308,130.68,,,,,,,
3979.6,0.00313,130.71,,,,,,,
3979.65,0.00318,131.04,,,,,,,
3979.7,0.00323,130.87,,,,,,,
3979.75,0.00328,130.88,,,,,,,
3979.8,0.00333,130.89,,,,,,,
3979.8,0.00334,130.91,,,,,,,
3979.85,0.00339,130.78,,,,,,,
3979.9,0.00344,130.78,,,,,,,
3979.95,0.00349,130.77,,,,,,,
3980.0,0.00354,130.87,,,,,,,
3980.05,0.00359,130.95,,,,,,,
3980.1,0.00364,131.11,,,,,,,
3980.16,0.00369,131.21,,,,,,,
3980.21,0.00374,131.26,,,,,,,
3980.26,0.00379,131.66,,,,,,,
3980.3,0.00384,131.82,,,,,,,
3980.31,0.00384,131.94,,,,,,,
3980.35,0.00389,131.98,,,,,,,
3980.4,0.00394,132.06,,,,,,,
3980.45,0.00399,132.11,,,,,,,
3980.5,0.00404,132.04,,,,,,,
3980.56,0.00409,132.44,,,,,,,
3980.61,0.00414,132.52,,,,,,,
3980.66,0.00419,132.71,,,,,,,
3980.71,0.00424,133.1,,,,,,,
3980.76,0.00429,133.61,,,,,,,
3980.8,0.00434,133.83,,,,,,,
3980.81,0.00434,133.84,,,,,,,
3980.86,0.0044,133.99,,,,,,,
3980.91,0.00445,134.5,,,,,,,
3980.95,0.0045,134.5,,,,,,,
3981.0,0.00455,134.58,,,,,,,
3981.05,0.0046,134.07,,,,,,,
3981.1,0.00465,133.93,,,,,,,
3981.15,0.0047,133.59,,,,,,,
3981.21,0.00475,133.41,,,,,,,
3981.26,0.0048,133.13,,,,,,,
3981.3,0.00484,133.18,,,,,,,
3981.31,0.00485,133.16,,,,,,,
3981.36,0.0049,132.95,,,,,,,
8983.62,0.00496,123.02,,,,,,,
8983.67,0.00501,122.0,,,,,,,
8983.8,0.00497,103.66,,,,,,,
8983.81,0.00496,102.59,,,,,,,
8983.84,0.00491,94.95,,,,,,,
8983.87,0.00486,88.31,,,,,,,
8983.9,0.00481,82.15,,,,,,,
8983.94,0.00476,75.78,,,,,,,
8983.99,0.00471,69.92,,,,,,,
8984.03,0.00466,64.38,,,,,,,
8984.09,0.00461,58.46,,,,,,,
8984.15,0.00456,53.29,,,,,,,
8984.2,0.00451,48.04,,,,,,,
8984.25,0.00445,43.28,,,,,,,
8984.3,0.00441,38.27,,,,,,,
8984.31,0.0044,37.58,,,,,,,
8984.36,0.00435,32.81,,,,,,,
8984.41,0.0043,28.21,,,,,,,
8984.46,0.00425,23.83,,,,,,,
8984.52,0.0042,18.89,,,,,,,
8984.57,0.00415,14.65,,,,,,,
8984.62,0.0041,9.86,,,,,,,
8984.68,0.00405,5.68,,,,,,,
8984.73,0.004,1.4,,,,,,,
8984.78,0.00395,-2.14,,,,,,,
8984.8,0.00394,-2.83,,,,,,,
8984.9,0.0039,-4.09,,,,,,,
8984.99,0.00385,-8.26,,,,,,,
8985.05,0.0038,-12.31,,,,,,,
8985.11,0.00375,-16.59,,,,,,,
8985.16,0.0037,-20.81,,,,,,,
8985.21,0.00365,-24.88,,,,,,,
8985.25,0.00359,-29.83,,,,,,,
8985.28,0.00354,-34.17,,,,,,,
8985.3,0.00351,-36.25,,,,,,,
8985.32,0.00349,-37.84,,,,,,,
8985.36,0.00344,-40.52,,,,,,,
8985.42,0.00339,-43.67,,,,,,,
8985.46,0.00334,-47.05,,,,,,,
8985.5,0.00329,-51.0,,,,,,,
8985.53,0.00324,-54.68,,,,,,,
8985.57,0.00319,-58.5,,,,,,,
8985.6,0.00314,-61.8,,,,,,,
8985.64,0.00309,-64.75,,,,,,,
8985.68,0.00304,-67.76,,,,,,,
8985.72,0.00299,-70.1,,,,,,,
8985.76,0.00293,-72.15,,,,,,,
8985.8,0.00289,-73.48,,,,,,,
8985.81,0.00288,-73.9,,,,,,,
8985.86,0.00283,-75.59,,,,,,,
8985.91,0.00278,-77.24,,,,,,,
8985.96,0.00273,-79.05,,,,,,,
8986.01,0.00268,-80.68,,,,,,,
8986.07,0.00263,-82.3,,,,,,,
8986.12,0.00258,-83.75,,,,,,,
8986.17,0.00253,-85.38,,,,,,,
8986.22,0.00248,-87.06,,,,,,,
8986.26,0.00243,-88.39,,,,,,,
8986.3,0.00239,-89.46,,,,,,,
8986.31,0.00238,-89.84,,,,,,,
8986.36,0.00233,-91.11,,,,,,,
8986.41,0.00228,-92.36,,,,,,,
8986.46,0.00223,-93.24,,,,,,,
8986.51,0.00218,-94.09,,,,,,,
8986.56,0.00213,-94.96,,,,,,,
8986.61,0.00208,-95.83,,,,,,,
8986.67,0.00203,-96.74,,,,,,,
8986.72,0.00197,-97.81,,,,,,,
8986.76,0.00192,-98.66,,,,,,,
8986.8,0.00188,-99.04,,,,,,,
8986.81,0.00187,-99.33,,,,,,,
8986.86,0.00182,-99.93,,,,,,,
8986.91,0.00177,-100.53,,,,,,,
8986.96,0.00172,-101.16,,,,,,,
8987.01,0.00167,-101.31,,,,,,,
8987.06,0.00162,-101.84,,,,,,,
8987.12,0.00157,-102.13,,,,,,,
8987.17,0.00152,-102.42,,,,,,,
8987.22,0.00147,-103.01,,,,,,,
8987.27,0.00142,-103.76,,,,,,,
8987.3,0.00138,-104.05,,,,,,,
8987.31,0.00137,-104.29,,,,,,,
8987.36,0.00132,-104.86,,,,,,,
8987.41,0.00127,-105.15,,,,,,,
8987.46,0.00122,-105.25,,,,,,,
8987.51,0.00117,-105.32,,,,,,,
8987.56,0.00112,-105.2,,,,,,,
8987.61,0.00107,-105.3,,,,,,,
8987.66,0.00101,-105.4,,,,,,,
8987.72,0.00096,-105.51,,,,,,,
8987.77,0.00091,-105.8,,,,,,,
8987.8,0.00088,-105.97,,,,,,,
8987.82,0.00086,-106.08,,,,,,,
8987.87,0.00081,-106.57,,,,,,,
8987.92,0.00076,-106.92,,,,,,,
8987.97,0.00071,-107.07,,,,,,,
8988.02,0.00066,-107.3,,,,,,,
8988.07,0.00061,-107.71,,,,,,,
8988.12,0.00056,-108.08,,,,,,,
8988.17,0.00051,-108.44,,,,,,,
8988.22,0.00046,-108.51,,,,,,,
8988.27,0.00041,-108.96,,,,,,,
8988.3,0.00038,-108.76,,,,,,,
8988.32,0.00036,-108.92,,,,,,,
8988.37,0.00031,-109.02,,,,,,,
8988.42,0.00026,-109.13,,,,,,,
8988.48,0.00021,-109.49,,,,,,,
8988.52,0.00016,-109.76,,,,,,,
8988.57,0.00011,-109.95,,,,,,,
8988.63,6e-05,-110.02,,,,,,,
8988.68,1e-05,-110.25,,,,,,,
8988.72,-4e-05,-110.53,,,,,,,
8988.77,-9e-05,-110.76,,,,,,,
8988.8,-0.00012,-110.62,,,,,,,
8988.82,-0.00015,-110.96,,,,,,,
8988.87,-0.0002,-111.03,,,,,,,
8988.92,-0.00025,-111.08,,,,,,,
8988.97,-0.0003,-110.74,,,,,,,
8989.02,-0.00035,-110.49,,,,,,,
8989.07,-0.0004,-110.38,,,,,,,
8989.12,-0.00045,-110.32,,,,,,,
8989.18,-0.0005,-110.2,,,,,,,
8989.23,-0.00055,-110.29,,,,,,,
8989.28,-0.0006,-110.68,,,,,,,
8989.3,-0.00063,-110.6,,,,,,,
8989.33,-0.00065,-110.7,,,,,,,
8989.38,-0.0007,-110.91,,,,,,,
8989.43,-0.00075,-110.91,,,,,,,
8989.47,-0.0008,-111.32,,,,,,,
8989.52,-0.00085,-111.02,,,,,,,
8989.58,-0.0009,-110.83,,,,,,,
8989.63,-0.00095,-110.92,,,,,,,
8989.68,-0.001,-110.93,,,,,,,
8989.73,-0.00105,-111.16,,,,,,,
8989.78,-0.0011,-111.41,,,,,,,
8989.8,-0.00113,-111.47,,,,,,,
8989.83,-0.00116,-111.84,,,,,,,
8989.88,-0.00121,-111.88,,,,,,,
8989.93,-0.00126,-112.02,,,,,,,
8989.98,-0.00131,-112.16,,,,,,,
8990.03,-0.00136,-112.11,,,,,,,
8990.08,-0.00141,-112.09,,,,,,,
8990.13,-0.00146,-112.14,,,,,,,
8990.18,-0.00151,-112.12,,,,,,,
8990.23,-0.00156,-112.26,,,,,,,
8990.28,-0.00161,-112.34,,,,,,,
8990.3,-0.00164,-112.27,,,,,,,
8990.33,-0.00166,-112.22,,,,,,,
8990.38,-0.00171,-112.11,,,,,,,
8990.43,-0.00176,-111.79,,,,,,,
8990.48,-0.00181,-111.81,,,,,,,
8990.53,-0.00186,-111.96,,,,,,,
8990.58,-0.00191,-111.94,,,,,,,
8990.63,-0.00197,-111.96,,,,,,,
8990.69,-0.00202,-112.15,,,,,,,
8990.74,-0.00207,-112.24,,,,,,,
8990.79,-0.00212,-112.26,,,,,,,
8990.8,-0.00213,-112.33,,,,,,,
8990.84,-0.00217,-112.44,,,,,,,
8990.89,-0.00222,-112.56,,,,,,,
8990.94,-0.00227,-112.7,,,,,,,
8990.99,-0.00232,-113.01,,,,,,,
8991.04,-0.00237,-113.51,,,,,,,
8991.09,-0.00242,-113.64,,,,,,,
8991.14,-0.00247,-114.19,,,,,,,
8991.19,-0.00252,-114.43,,,,,,,
8991.24,-0.00257,-114.51,,,,,,,
8991.29,-0.00262,-114.95,,,,,,,
8991.3,-0.00263,-114.87,,,,,,,
8991.34,-0.00267,-115.07,,,,,,,
8991.39,-0.00272,-114.97,,,,,,,
8991.44,-0.00277,-115.08,,,,,,,
8991.49,-0.00282,-115.07,,,,,,,
8991.54,-0.00287,-115.18,,,,,,,
8991.59,-0.00292,-115.12,,,,,,,
8991.64,-0.00297,-114.99,,,,,,,
8991.69,-0.00302,-114.94,,,,,,,
8991.74,-0.00307,-114.97,,,,,,,
8991.79,-0.00312,-114.96,,,,,,,
8991.8,-0.00313,-114.88,,,,,,,
8991.84,-0.00317,-114.8,,,,,,,
8991.89,-0.00322,-115.12,,,,,,,
8991.94,-0.00327,-115.33,,,,,,,
8991.99,-0.00333,-115.35,,,,,,,
8992.04,-0.00338,-115.29,,,,,,,
8992.09,-0.00343,-115.34,,,,,,,
8992.15,-0.00348,-115.34,,,,,,,
8992.2,-0.00353,-115.53,,,,,,,
8992.25,-0.00358,-115.72,,,,,,,
8992.3,-0.00363,-115.66,,,,,,,
8992.3,-0.00363,-115.66,,,,,,,
8992.34,-0.00368,-115.88,,,,,,,
8992.4,-0.00373,-116.22,,,,,,,
8992.45,-0.00378,-116.27,,,,,,,
8992.49,-0.00383,-116.29,,,,,,,
8992.54,-0.00388,-116.37,,,,,,,
8992.6,-0.00393,-116.49,,,,,,,
8992.64,-0.00399,-116.12,,,,,,,
8992.7,-0.00404,-116.12,,,,,,,
8992.74,-0.00409,-115.78,,,,,,,
8992.8,-0.00414,-115.54,,,,,,,
8992.8,-0.00414,-115.62,,,,,,,
8992.85,-0.00419,-115.64,,,,,,,
8992.91,-0.00424,-115.7,,,,,,,
8992.96,-0.00429,-116.09,,,,,,,
8993.01,-0.00434,-116.55,,,,,,,
8993.05,-0.00439,-116.89,,,,,,,
8993.1,-0.00444,-117.06,,,,,,,
8993.15,-0.00449,-117.1,,,,,,,
8993.21,-0.00454,-117.31,,,,,,,
8993.25,-0.00459,-117.41,,,,,,,
8993.3,-0.00463,-117.48,,,,,,,
8993.31,-0.00464,-117.56,,,,,,,
8993.36,-0.00469,-117.8,,,,,,,
8993.41,-0.00474,-117.91,,,,,,,
8993.47,-0.0048,-117.93,,,,,,,
8993.52,-0.00485,-118.35,,,,,,,
8993.57,-0.0049,-118.9,,,,,,,
8993.62,-0.00495,-119.32,,,,,,,
8993.68,-0.005,-118.7,,,,,,,
8993.8,-0.00497,-101.46,,,,,,,
8993.82,-0.00495,-96.64,,,,,,,
8993.86,-0.0049,-88.67,,,,,,,
8993.89,-0.00485,-81.27,,,,,,,
8993.93,-0.00479,-73.48,,,,,,,
8993.97,-0.00474,-67.09,,,,,,,
8994.01,-0.00469,-60.24,,,,,,,
8994.06,-0.00464,-54.08,,,,,,,
8994.11,-0.00459,-47.78,,,,,,,
8994.16,-0.00454,-41.84,,,,,,,
8994.22,-0.00449,-35.67,,,,,,,
8994.27,-0.00444,-30.25,,,,,,,
8994.3,-0.00441,-26.87,,,,,,,
8994.32,-0.00439,-25.16,,,,,,,
8994.37,-0.00434,-19.59,,,,,,,
8994.43,-0.00429,-14.21,,,,,,,
8994.48,-0.00424,-9.58,,,,,,,
8994.53,-0.00419,-4.5,,,,,,,
8994.58,-0.00414,-0.18,,,,,,,
8994.63,-0.00409,4.81,,,,,,,
8994.68,-0.00404,8.8,,,,,,,
8994.74,-0.00399,13.88,,,,,,,
8994.79,-0.00394,17.71,,,,,,,
8994.8,-0.00393,18.55,,,,,,,
8994.84,-0.00389,22.01,,,,,,,
8994.9,-0.00384,25.9,,,,,,,
8994.95,-0.00379,29.94,,,,,,,
8995.02,-0.00373,33.17,,,,,,,
8995.12,-0.00368,35.55,,,,,,,
8995.2,-0.00363,39.05,,,,,,,
8995.25,-0.00358,43.32,,,,,,,
8995.29,-0.00353,48.26,,,,,,,
8995.3,-0.00351,50.41,,,,,,,
8995.32,-0.00348,52.8,,,,,,,
8995.35,-0.00343,56.53,,,,,,,
8995.39,-0.00338,60.03,,,,,,,
8995.45,-0.00333,62.51,,,,,,,
8995.51,-0.00328,64.59,,,,,,,
8995.57,-0.00323,66.64,,,,,,,
8995.63,-0.00318,69.25,,,,,,,
8995.69,-0.00313,71.67,,,,,,,
8995.74,-0.00308,74.19,,,,,,,
8995.79,-0.00303,76.69,,,,,,,
8995.8,-0.00302,77.3,,,,,,,
8995.84,-0.00298,79.58,,,,,,,
8995.88,-0.00293,82.66,,,,,,,
8995.92,-0.00288,86.45,,,,,,,
8995.95,-0.00283,89.59,,,,,,,
8995.98,-0.00277,92.55,,,,,,,
8996.02,-0.00272,95.01,,,,,,,
8996.05,-0.00267,97.25,,,,,,,
8996.09,-0.00262,99.04,,,,,,,
8996.13,-0.00257,100.59,,,,,,,
8996.18,-0.00252,101.65,,,,,,,
8996.22,-0.00247,102.25,,,,,,,
8996.28,-0.00242,102.92,,,,,,,
8996.3,-0.00239,102.96,,,,,,,
8996.32,-0.00237,103.48,,,,,,,
8996.38,-0.00232,103.93,,,,,,,
8996.43,-0.00227,104.59,,,,,,,
8996.48,-0.00222,105.24,,,,,,,
8996.53,-0.00217,105.91,,,,,,,
8996.58,-0.00212,106.67,,,,,,,
8996.63,-0.00207,107.3,,,,,,,
8996.68,-0.00202,107.91,,,,,,,
8996.73,-0.00197,108.53,,,,,,,
8996.78,-0.00191,109.31,,,,,,,
8996.8,-0.00189,109.34,,,,,,,
8996.82,-0.00186,109.73,,,,,,,
8996.88,-0.00181,109.98,,,,,,,
8996.93,-0.00176,110.35,,,,,,,
8996.98,-0.00171,110.91,,,,,,,
8997.03,-0.00166,111.17,,,,,,,
8997.08,-0.00161,111.52,,,,,,,
8997.13,-0.00156,112.02,,,,,,,
8997.18,-0.00151,112.65,,,,,,,
8997.23,-0.00146,113.1,,,,,,,
8997.28,-0.00141,113.56,,,,,,,
8997.3,-0.00138,113.6,,,,,,,
8997.33,-0.00136,113.7,,,,,,,
8997.38,-0.00131,113.92,,,,,,,
8997.43,-0.00126,114.12,,,,,,,
8997.47,-0.00121,114.12,,,,,,,
8997.53,-0.00116,114.28,,,,,,,
8997.57,-0.00111,114.39,,,,,,,
8997.63,-0.00106,114.5,,,,,,,
8997.68,-0.00101,114.68,,,,,,,
8997.73,-0.00096,114.89,,,,,,,
8997.78,-0.00091,114.99,,,,,,,
8997.8,-0.00088,115.03,,,,,,,
8997.83,-0.00085,115.19,,,,,,,
8997.87,-0.0008,115.18,,,,,,,
8997.92,-0.00075,115.08,,,,,,,
8997.97,-0.0007,114.97,,,,,,,
8998.02,-0.00065,114.75,,,,,,,
8998.08,-0.0006,114.34,,,,,,,
8998.13,-0.00055,114.45,,,,,,,
8998.19,-0.0005,114.94,,,,,,,
8998.24,-0.00045,115.03,,,,,,,
8998.29,-0.0004,115.42,,,,,,,
8998.3,-0.00038,115.59,,,,,,,
8998.33,-0.00035,115.87,,,,,,,
8998.39,-0.0003,116.12,,,,,,,
8998.44,-0.00025,116.19,,,,,,,
8998.49,-0.0002,116.24,,,,,,,
8998.54,-0.00015,116.67,,,,,,,
8998.59,-0.0001,117.03,,,,,,,
8998.64,-4e-05,117.54,,,,,,,
8998.69,1e-05,117.71,,,,,,,
8998.74,6e-05,117.8,,,,,,,
8998.79,0.00011,117.93,,,,,,,
8998.8,0.00012,117.97,,,,,,,
8998.84,0.00016,118.05,,,,,,,
8998.89,0.00021,118.01,,,,,,,
8998.94,0.00026,117.89,,,,,,,
8998.99,0.00031,117.51,,,,,,,
8999.04,0.00036,117.43,,,,,,,
8999.09,0.00041,117.45,,,,,,,
8999.14,0.00046,117.81,,,,,,,
8999.19,0.00051,117.99,,,,,,,
8999.25,0.00056,118.33,,,,,,,
8999.29,0.00061,118.71,,,,,,,
8999.3,0.00062,118.65,,,,,,,
8999.34,0.00066,118.97,,,,,,,
8999.39,0.00071,119.04,,,,,,,
8999.44,0.00076,119.13,,,,,,,
8999.49,0.00081,119.29,,,,,,,
8999.54,0.00086,119.27,,,,,,,
8999.59,0.00091,119.51,,,,,,,
8999.64,0.00096,119.37,,,,,,,
8999.69,0.00101,119.36,,,,,,,
8999.74,0.00106,119.07,,,,,,,
8999.79,0.00111,119.02,,,,,,,
8999.8,0.00112,118.91,,,,,,,
8999.85,0.00116,118.82,,,,,,,
8999.9,0.00121,119.13,,,,,,,
8999.94,0.00126,119.21,,,,,,,
9000.0,0.00132,119.27,,,,,,,
9000.05,0.00137,119.37,,,,,,,
9000.09,0.00142,119.79,,,,,,,
9000.15,0.00147,120.05,,,,,,,
9000.2,0.00152,120.12,,,,,,,
9000.25,0.00157,120.42,,,,,,,
9000.3,0.00162,120.54,,,,,,,
9000.3,0.00162,120.6,,,,,,,
9000.35,0.00167,120.88,,,,,,,
9000.4,0.00172,120.94,,,,,,,
9000.45,0.00177,120.97,,,,,,,
9000.49,0.00182,120.99,,,,,,,
9000.54,0.00187,120.76,,,,,,,
9000.6,0.00192,120.4,,,,,,,
9000.64,0.00197,120.14,,,,,,,
9000.7,0.00202,119.98,,,,,,,
9000.74,0.00207,119.89,,,,,,,
9000.8,0.00212,119.87,,,,,,,
9000.8,0.00213,119.83,,,,,,,
9000.85,0.00217,119.73,,,,,,,
9000.9,0.00223,119.64,,,,,,,
9000.95,0.00228,119.62,,,,,,,
9001.0,0.00233,119.83,,,,,,,
9001.05,0.00238,119.9,,,,,,,
9001.11,0.00243,120.31,,,,,,,
9001.16,0.00248,120.63,,,,,,,
9001.21,0.00253,120.87,,,,,,,
9001.25,0.00258,121.06,,,,,,,
9001.3,0.00263,121.15,,,,,,,
9001.35,0.00268,121.11,,,,,,,
9001.41,0.00273,121.1,,,,,,,
9001.45,0.00278,121.07,,,,,,,
9001.51,0.00283,121.19,,,,,,,
9001.55,0.00288,121.13,,,,,,,
9001.6,0.00293,121.27,,,,,,,
9001.66,0.00299,121.26,,,,,,,
9001.71,0.00304,121.01,,,,,,,
9001.76,0.00309,121.05,,,,,,,
9001.8,0.00312,121.24,,,,,,,
9001.81,0.00314,121.15,,,,,,,
9001.86,0.00319,121.42,,,,,,,
9001.91,0.00324,121.73,,,,,,,
9001.96,0.00329,121.99,,,,,,,
9002.01,0.00334,122.11,,,,,,,
9002.06,0.00339,122.3,,,,,,,
9002.11,0.00344,121.96,,,,,,,
9002.15,0.00349,121.9,,,,,,,
9002.21,0.00354,121.57,,,,,,,
9002.26,0.00359,121.56,,,,,,,
9002.3,0.00363,121.34,,,,,,,
9002.31,0.00364,121.41,,,,,,,
9002.36,0.00369,121.19,,,,,,,
9002.41,0.00374,121.21,,,,,,,
9002.46,0.00379,121.23,,,,,,,
9002.52,0.00384,121.35,,,,,,,
9002.56,0.00389,121.58,,,,,,,
9002.62,0.00395,121.6,,,,,,,
9002.67,0.004,121.83,,,,,,,
9002.72,0.00405,122.19,,,,,,,
9002.77,0.0041,122.45,,,,,,,
9002.8,0.00413,122.8,,,,,,,
9002.82,0.00415,122.77,,,,,,,
9002.86,0.0042,122.83,,,,,,,
9002.91,0.00425,122.83,,,,,,,
9002.97,0.0043,122.77,,,,,,,
9003.02,0.00435,122.61,,,,,,,
9003.07,0.0044,122.34,,,,,,,
9003.12,0.00445,122.51,,,,,,,
9003.17,0.0045,122.58,,,,,,,
9003.22,0.00455,122.52,,,,,,,
9003.27,0.0046,122.81,,,,,,,
9003.3,0.00464,122.72,,,,,,,
9003.32,0.00465,122.75,,,,,,,
9003.37,0.0047,122.53,,,,,,,
9003.42,0.00475,122.71,,,,,,,
9003.47,0.0048,122.84,,,,,,,
9003.52,0.00485,123.05,,,,,,,
9003.57,0.0049,123.14,,,,,,,
9964.09,0.00501,118.35,,,,,,,
9964.24,0.00496,97.89,,,,,,,
9964.27,0.00491,91.03,,,,,,,
9964.3,0.00486,84.9,,,,,,,
9964.3,0.00486,84.38,,,,,,,
9964.34,0.0048,77.81,,,,,,,
9964.38,0.00475,71.88,,,,,,,
9964.42,0.0047,66.43,,,,,,,
9964.47,0.00465,60.72,,,,,,,
9964.53,0.0046,55.44,,,,,,,
9964.58,0.00455,50.07,,,,,,,
9964.64,0.0045,44.75,,,,,,,
9964.69,0.00445,39.82,,,,,,,
9964.74,0.0044,34.85,,,,,,,
9964.79,0.00435,29.83,,,,,,,
9964.8,0.00434,29.41,,,,,,,
9964.85,0.0043,25.1,,,,,,,
9964.9,0.00425,20.74,,,,,,,
9964.96,0.0042,15.68,,,,,,,
9965.01,0.00415,11.27,,,,,,,
9965.06,0.0041,7.28,,,,,,,
9965.11,0.00404,3.09,,,,,,,
9965.16,0.00399,-0.96,,,,,,,
9965.24,0.00394,-3.15,,,,,,,
9965.3,0.00392,-3.72,,,,,,,
9965.35,0.00389,-6.06,,,,,,,
9965.42,0.00384,-9.41,,,,,,,
9965.48,0.00379,-13.53,,,,,,,
9965.53,0.00374,-17.45,,,,,,,
9965.59,0.00369,-21.45,,,,,,,
9965.63,0.00364,-25.36,,,,,,,
9965.66,0.00359,-29.96,,,,,,,
9965.7,0.00354,-33.67,,,,,,,
9965.74,0.00349,-36.86,,,,,,,
9965.79,0.00344,-39.58,,,,,,,
9965.8,0.00343,-40.18,,,,,,,
9965.84,0.00339,-42.28,,,,,,,
9965.89,0.00334,-45.9,,,,,,,
9965.92,0.00329,-49.62,,,,,,,
9965.96,0.00324,-53.23,,,,,,,
9965.99,0.00319,-56.84,,,,,,,
9966.02,0.00314,-59.65,,,,,,,
9966.06,0.00308,-62.71,,,,,,,
9966.1,0.00303,-65.25,,,,,,,
9966.14,0.00298,-67.16,,,,,,,
9966.19,0.00293,-69.22,,,,,,,
9966.24,0.00288,-70.88,,,,,,,
9966.29,0.00283,-72.31,,,,,,,
9966.3,0.00282,-72.56,,,,,,,
9966.34,0.00278,-74.19,,,,,,,
9966.4,0.00273,-75.79,,,,,,,
9966.44,0.00268,-77.09,,,,,,,
9966.49,0.00263,-78.81,,,,,,,
9966.54,0.00258,-80.19,,,,,,,
9966.6,0.00253,-81.47,,,,,,,
9966.65,0.00248,-83.15,,,,,,,
9966.7,0.00243,-84.53,,,,,,,
9966.75,0.00238,-85.97,,,,,,,
9966.8,0.00233,-87.55,,,,,,,
9966.8,0.00232,-87.47,,,,,,,
9966.85,0.00228,-88.92,,,,,,,
9966.9,0.00223,-90.09,,,,,,,
9966.94,0.00217,-91.16,,,,,,,
9966.99,0.00212,-92.07,,,,,,,
9967.04,0.00207,-92.89,,,,,,,
9967.09,0.00202,-93.36,,,,,,,
9967.14,0.00197,-93.74,,,,,,,
9967.19,0.00192,-94.46,,,,,,,
9967.25,0.00187,-95.05,,,,,,,
9967.3,0.00182,-95.57,,,,,,,
9967.3,0.00181,-95.6,,,,,,,
9967.35,0.00177,-96.17,,,,,,,
9967.39,0.00172,-96.77,,,,,,,
9967.45,0.00167,-97.23,,,,,,,
9967.49,0.00162,-97.86,,,,,,,
9967.54,0.00157,-98.08,,,,,,,
9967.59,0.00152,-98.36,,,,,,,
9967.64,0.00147,-98.81,,,,,,,
9967.69,0.00142,-98.87,,,,,,,
9967.74,0.00137,-98.92,,,,,,,
9967.79,0.00132,-99.21,,,,,,,
9967.8,0.00131,-99.01,,,,,,,
9967.85,0.00126,-99.28,,,,,,,
9967.9,0.00121,-99.61,,,,,,,
9967.95,0.00116,-100.19,,,,,,,
9968.0,0.00111,-100.62,,,,,,,
9968.05,0.00106,-100.99,,,,,,,
9968.1,0.00101,-101.16,,,,,,,
9968.15,0.00096,-101.49,,,,,,,
9968.2,0.00091,-102.02,,,,,,,
9968.25,0.00086,-102.36,,,,,,,
9968.3,0.00081,-102.68,,,,,,,
9968.3,0.00081,-102.5,,,,,,,
9968.35,0.00076,-102.73,,,,,,,
9968.4,0.00071,-102.72,,,,,,,
9968.45,0.00066,-102.95,,,,,,,
9968.51,0.00061,-103.32,,,,,,,
9968.56,0.00055,-103.53,,,,,,,
9968.61,0.0005,-104.07,,,,,,,
9968.66,0.00045,-104.29,,,,,,,
9968.71,0.0004,-104.89,,,,,,,
9968.75,0.00035,-105.13,,,,,,,
9968.8,0.0003,-105.29,,,,,,,
9968.8,0.0003,-105.17,,,,,,,
9968.85,0.00025,-105.26,,,,,,,
9968.9,0.0002,-105.36,,,,,,,
9968.96,0.00015,-104.92,,,,,,,
9969.01,0.0001,-105.02,,,,,,,
9969.06,5e-05,-105.3,,,,,,,
9969.11,-0.0,-105.48,,,,,,,
9969.16,-5e-05,-105.83,,,,,,,
9969.2,-0.0001,-105.75,,,,,,,
9969.25,-0.00015,-105.81,,,,,,,
9969.3,-0.0002,-105.56,,,,,,,
9969.3,-0.0002,-105.74,,,,,,,
9969.35,-0.00025,-105.48,,,,,,,
9969.41,-0.0003,-105.05,,,,,,,
9969.46,-0.00035,-104.87,,,,,,,
9969.51,-0.00041,-105.07,,,,,,,
9969.56,-0.00046,-105.4,,,,,,,
9969.61,-0.00051,-105.54,,,,,,,
9969.66,-0.00056,-105.8,,,,,,,
9969.71,-0.00061,-106.21,,,,,,,
9969.76,-0.00066,-106.48,,,,,,,
9969.8,-0.0007,-106.55,,,,,,,
9969.81,-0.00071,-106.71,,,,,,,
9969.86,-0.00076,-106.9,,,,,,,
9969.91,-0.00081,-107.18,,,,,,,
9969.96,-0.00086,-107.3,,,,,,,
9970.01,-0.00091,-107.42,,,,,,,
9970.07,-0.00096,-107.36,,,,,,,
9970.11,-0.00101,-107.61,,,,,,,
9970.16,-0.00106,-107.73,,,,,,,
9970.21,-0.00111,-108.08,,,,,,,
9970.26,-0.00116,-108.3,,,,,,,
9970.3,-0.0012,-108.18,,,,,,,
9970.31,-0.00121,-108.25,,,,,,,
9970.36,-0.00126,-108.16,,,,,,,
9970.42,-0.00131,-108.31,,,,,,,
9970.47,-0.00136,-108.26,,,,,,,
9970.51,-0.00142,-108.35,,,,,,,
9970.56,-0.00147,-108.44,,,,,,,
9970.62,-0.00152,-108.33,,,,,,,
9970.67,-0.00157,-108.42,,,,,,,
9970.72,-0.00162,-108.54,,,,,,,
9970.77,-0.00167,-108.77,,,,,,,
9970.8,-0.0017,-108.65,,,,,,,
9970.82,-0.00172,-108.82,,,,,,,
9970.87,-0.00177,-108.98,,,,,,,
9970.92,-0.00182,-108.82,,,,,,,
9970.97,-0.00187,-108.81,,,,,,,
9971.02,-0.00192,-108.72,,,,,,,
9971.07,-0.00197,-108.75,,,,,,,
9971.12,-0.00202,-109.14,,,,,,,
9971.17,-0.00207,-108.95,,,,,,,
9971.22,-0.00212,-108.85,,,,,,,
9971.27,-0.00217,-108.92,,,,,,,
9971.3,-0.0022,-108.96,,,,,,,
9971.32,-0.00222,-109.0,,,,,,,
9971.37,-0.00227,-109.11,,,,,,,
9971.42,-0.00232,-109.12,,,,,,,
9971.47,-0.00237,-109.29,,,,,,,
9971.52,-0.00242,-109.42,,,,,,,
9971.57,-0.00248,-109.69,,,,,,,
9971.63,-0.00253,-109.73,,,,,,,
9971.68,-0.00258,-110.1,,,,,,,
9971.73,-0.00263,-109.98,,,,,,,
9971.78,-0.00268,-110.24,,,,,,,
9971.8,-0.0027,-110.23,,,,,,,
9971.83,-0.00273,-110.33,,,,,,,
9971.88,-0.00278,-110.66,,,,,,,
9971.93,-0.00283,-110.83,,,,,,,
9971.98,-0.00288,-110.84,,,,,,,
9972.03,-0.00293,-111.02,,,,,,,
9972.08,-0.00298,-111.26,,,,,,,
9972.13,-0.00303,-111.4,,,,,,,
9972.19,-0.00308,-111.75,,,,,,,
9972.23,-0.00313,-111.92,,,,,,,
9972.28,-0.00318,-112.3,,,,,,,
9972.3,-0.0032,-112.15,,,,,,,
9972.33,-0.00323,-112.32,,,,,,,
9972.38,-0.00328,-112.28,,,,,,,
9972.43,-0.00333,-112.32,,,,,,,
9972.48,-0.00338,-112.25,,,,,,,
9972.53,-0.00343,-112.11,,,,,,,
9972.58,-0.00348,-112.23,,,,,,,
9972.63,-0.00353,-112.42,,,,,,,
9972.68,-0.00359,-112.58,,,,,,,
9972.73,-0.00364,-112.63,,,,,,,
9972.77,-0.00369,-112.81,,,,,,,
9972.8,-0.00371,-112.62,,,,,,,
9972.83,-0.00374,-112.52,,,,,,,
9972.88,-0.00379,-112.41,,,,,,,
9972.93,-0.00384,-112.2,,,,,,,
9972.99,-0.00389,-112.1,,,,,,,
9973.04,-0.00394,-112.1,,,,,,,
9973.08,-0.00399,-112.4,,,,,,,
9973.13,-0.00404,-112.44,,,,,,,
9973.18,-0.00409,-112.6,,,,,,,
9973.23,-0.00414,-112.48,,,,,,,
9973.28,-0.00419,-112.46,,,,,,,
9973.3,-0.00421,-112.4,,,,,,,
9973.35,-0.00424,-112.52,,,,,,,
9973.39,-0.00429,-113.15,,,,,,,
9973.44,-0.00434,-113.5,,,,,,,
9973.5,-0.00439,-113.89,,,,,,,
9973.55,-0.00444,-114.2,,,,,,,
9973.59,-0.0045,-114.3,,,,,,,
9973.64,-0.00455,-114.46,,,,,,,
9973.7,-0.0046,-114.94,,,,,,,
9973.75,-0.00465,-115.48,,,,,,,
9973.8,-0.0047,-115.98,,,,,,,
9973.8,-0.0047,-116.22,,,,,,,
9973.84,-0.00475,-116.37,,,,,,,
9973.9,-0.0048,-116.8,,,,,,,
9973.95,-0.00485,-116.96,,,,,,,
9974.0,-0.0049,-117.29,,,,,,,
9974.05,-0.00495,-117.31,,,,,,,
9974.11,-0.005,-116.67,,,,,,,
9974.25,-0.00495,-95.36,,,,,,,
9974.28,-0.0049,-87.09,,,,,,,
9974.3,-0.00488,-83.18,,,,,,,
9974.32,-0.00485,-79.62,,,,,,,
9974.35,-0.0048,-72.36,,,,,,,
9974.39,-0.00475,-65.75,,,,,,,
9974.43,-0.0047,-59.78,,,,,,,
9974.47,-0.00465,-53.97,,,,,,,
9974.53,-0.0046,-47.89,,,,,,,
9974.58,-0.00455,-42.34,,,,,,,
9974.64,-0.0045,-36.22,,,,,,,
9974.7,-0.00444,-30.87,,,,,,,
9974.74,-0.00439,-26.05,,,,,,,
9974.8,-0.00434,-20.86,,,,,,,
9974.8,-0.00434,-20.14,,,,,,,
9974.85,-0.00429,-15.67,,,,,,,
9974.9,-0.00424,-11.08,,,,,,,
9974.96,-0.00419,-6.02,,,,,,,
9975.01,-0.00414,-1.57,,,,,,,
9975.06,-0.00409,3.2,,,,,,,
9975.12,-0.00404,7.82,,,,,,,
9975.16,-0.00399,11.81,,,,,,,
9975.22,-0.00394,16.61,,,,,,,
9975.27,-0.00389,20.81,,,,,,,
9975.3,-0.00386,22.84,,,,,,,
9975.32,-0.00384,24.23,,,,,,,
9975.37,-0.00379,28.23,,,,,,,
9975.44,-0.00374,31.78,,,,,,,
9975.52,-0.00369,34.24,,,,,,,
9975.61,-0.00364,36.86,,,,,,,
9975.67,-0.00359,40.65,,,,,,,
9975.72,-0.00354,44.96,,,,,,,
9975.75,-0.00349,49.54,,,,,,,
9975.78,-0.00344,53.52,,,,,,,
9975.8,-0.00341,55.48,,,,,,,
9975.82,-0.00338,56.85,,,,,,,
9975.86,-0.00333,59.66,,,,,,,
9975.92,-0.00328,61.59,,,,,,,
9975.98,-0.00323,63.43,,,,,,,
9976.04,-0.00318,65.45,,,,,,,
9976.1,-0.00313,67.63,,,,,,,
9976.16,-0.00308,70.19,,,,,,,
9976.21,-0.00303,72.47,,,,,,,
9976.26,-0.00298,75.03,,,,,,,
9976.3,-0.00294,77.19,,,,,,,
9976.31,-0.00293,77.77,,,,,,,
9976.35,-0.00288,81.11,,,,,,,
9976.38,-0.00283,84.23,,,,,,,
9976.42,-0.00277,87.1,,,,,,,
9976.45,-0.00272,89.87,,,,,,,
9976.49,-0.00267,92.19,,,,,,,
9976.52,-0.00262,94.13,,,,,,,
9976.56,-0.00257,95.69,,,,,,,
9976.6,-0.00252,96.71,,,,,,,
9976.65,-0.00247,97.45,,,,,,,
9976.7,-0.00242,98.2,,,,,,,
9976.75,-0.00237,98.57,,,,,,,
9976.8,-0.00233,99.32,,,,,,,
9976.81,-0.00232,99.48,,,,,,,
9976.86,-0.00227,100.24,,,,,,,
9976.91,-0.00222,100.75,,,,,,,
9976.96,-0.00217,101.56,,,,,,,
9977.0,-0.00212,102.32,,,,,,,
9977.05,-0.00207,102.79,,,,,,,
9977.1,-0.00202,103.5,,,,,,,
9977.15,-0.00197,103.88,,,,,,,
9977.2,-0.00192,104.27,,,,,,,
9977.25,-0.00187,104.57,,,,,,,
9977.3,-0.00182,105.09,,,,,,,
9977.31,-0.00181,105.25,,,,,,,
9977.36,-0.00176,105.94,,,,,,,
9977.41,-0.00171,106.64,,,,,,,
9977.46,-0.00166,107.34,,,,,,,
9977.51,-0.00161,108.09,,,,,,,
9977.56,-0.00156,108.64,,,,,,,
9977.6,-0.00151,108.9,,,,,,,
9977.65,-0.00146,109.39,,,,,,,
9977.7,-0.00141,109.63,,,,,,,
9977.75,-0.00136,109.89,,,,,,,
9977.8,-0.00131,110.07,,,,,,,
9977.81,-0.00131,109.95,,,,,,,
9977.86,-0.00126,110.1,,,,,,,
9977.9,-0.00121,110.2,,,,,,,
9977.95,-0.00116,110.15,,,,,,,
9978.0,-0.00111,110.14,,,,,,,
9978.05,-0.00106,110.14,,,,,,,
9978.1,-0.001,110.05,,,,,,,
9978.15,-0.00095,109.86,,,,,,,
9978.21,-0.0009,109.67,,,,,,,
9978.26,-0.00085,109.95,,,,,,,
9978.3,-0.00081,110.19,,,,,,,
9978.31,-0.0008,110.13,,,,,,,
9978.36,-0.00075,110.4,,,,,,,
9978.41,-0.0007,110.94,,,,,,,
9978.46,-0.00065,111.43,,,,,,,
9978.51,-0.0006,111.85,,,,,,,
9978.57,-0.00055,112.34,,,,,,,
9978.61,-0.0005,112.56,,,,,,,
9978.66,-0.00045,112.95,,,,,,,
9978.71,-0.0004,112.9,,,,,,,
9978.76,-0.00035,113.1,,,,,,,
9978.8,-0.00031,113.2,,,,,,,
9978.82,-0.0003,113.11,,,,,,,
9978.87,-0.00025,113.43,,,,,,,
9978.92,-0.0002,113.84,,,,,,,
9978.97,-0.00015,114.38,,,,,,,
9979.02,-0.0001,114.53,,,,,,,
9979.06,-5e-05,114.95,,,,,,,
9979.11,0.0,115.0,,,,,,,
9979.16,5e-05,114.96,,,,,,,
9979.22,0.0001,114.91,,,,,,,
9979.27,0.00016,114.71,,,,,,,
9979.3,0.00019,114.73,,,,,,,
9979.31,0.00021,114.75,,,,,,,
9979.37,0.00026,114.54,,,,,,,
9979.42,0.00031,114.74,,,,,,,
9979.47,0.00036,114.78,,,,,,,
9979.52,0.00041,114.96,,,,,,,
9979.56,0.00046,114.72,,,,,,,
9979.61,0.00051,114.56,,,,,,,
9979.67,0.00056,114.55,,,,,,,
9979.71,0.00061,114.54,,,,,,,
9979.77,0.00066,114.5,,,,,,,
9979.8,0.00069,114.54,,,,,,,
9979.82,0.00071,114.5,,,,,,,
9979.87,0.00076,114.5,,,,,,,
9979.92,0.00081,114.44,,,,,,,
9979.97,0.00086,114.45,,,,,,,
9980.02,0.00091,114.29,,,,,,,
9980.07,0.00096,114.4,,,,,,,
9980.12,0.00101,114.57,,,,,,,
9980.17,0.00106,114.72,,,,,,,
9980.22,0.00111,114.96,,,,,,,
9980.27,0.00116,115.03,,,,,,,
9980.3,0.00119,115.26,,,,,,,
9980.33,0.00121,115.26,,,,,,,
9980.37,0.00127,115.46,,,,,,,
9980.42,0.00132,115.68,,,,,,,
9980.47,0.00137,115.85,,,,,,,
9980.52,0.00142,115.88,,,,,,,
9980.57,0.00147,116.05,,,,,,,
9980.62,0.00152,116.04,,,,,,,
9980.67,0.00157,116.45,,,,,,,
9980.72,0.00162,116.31,,,,,,,
9980.77,0.00167,116.43,,,,,,,
9980.8,0.0017,116.47,,,,,,,
9980.82,0.00172,116.54,,,,,,,
9980.87,0.00177,116.22,,,,,,,
9980.93,0.00182,116.46,,,,,,,
9980.98,0.00187,116.47,,,,,,,
9981.03,0.00192,116.73,,,,,,,
9981.08,0.00197,116.81,,,,,,,
9981.13,0.00202,116.76,,,,,,,
9981.18,0.00207,117.03,,,,,,,
9981.23,0.00212,117.05,,,,,,,
9981.28,0.00217,117.13,,,,,,,
9981.3,0.0022,117.29,,,,,,,
9981.33,0.00223,117.14,,,,,,,
9981.38,0.00228,117.11,,,,,,,
9981.43,0.00233,116.99,,,,,,,
9981.48,0.00238,116.81,,,,,,,
9981.53,0.00243,116.89,,,,,,,
9981.58,0.00248,116.6,,,,,,,
9981.63,0.00253,116.75,,,,,,,
9981.68,0.00258,116.73,,,,,,,
9981.73,0.00263,116.74,,,,,,,
9981.78,0.00268,116.63,,,,,,,
9981.8,0.0027,116.65,,,,,,,
9981.83,0.00273,116.54,,,,,,,
9981.88,0.00278,116.62,,,,,,,
9981.93,0.00283,116.67,,,,,,,
9981.99,0.00288,116.5,,,,,,,
9982.04,0.00293,116.68,,,,,,,
9982.09,0.00298,116.95,,,,,,,
9982.14,0.00303,117.11,,,,,,,
9982.19,0.00308,117.6,,,,,,,
9982.23,0.00313,117.82,,,,,,,
9982.29,0.00319,117.83,,,,,,,
9982.3,0.0032,117.81,,,,,,,
9982.33,0.00324,117.79,,,,,,,
9982.39,0.00329,117.51,,,,,,,
9982.44,0.00334,117.31,,,,,,,
9982.49,0.00339,117.51,,,,,,,
9982.54,0.00344,117.8,,,,,,,
9982.59,0.00349,117.82,,,,,,,
9982.64,0.00354,118.03,,,,,,,
9982.69,0.00359,117.93,,,,,,,
9982.74,0.00364,117.93,,,,,,,
9982.79,0.00369,117.95,,,,,,,
9982.8,0.0037,118.04,,,,,,,
9982.84,0.00374,118.03,,,,,,,
9982.89,0.00379,117.83,,,,,,,
9982.94,0.00384,117.9,,,,,,,
9982.99,0.00389,118.06,,,,,,,
9983.04,0.00394,118.32,,,,,,,
9983.09,0.00399,118.15,,,,,,,
9983.14,0.00404,118.52,,,,,,,
9983.19,0.00409,118.59,,,,,,,
9983.24,0.00414,118.98,,,,,,,
9983.29,0.00419,119.28,,,,,,,
9983.3,0.0042,119.3,,,,,,,
9983.34,0.00424,119.34,,,,,,,
9983.39,0.00429,119.68,,,,,,,
9983.44,0.00435,119.59,,,,,,,
9983.49,0.0044,119.59,,,,,,,
9983.54,0.00445,119.3,,,,,,,
9983.59,0.0045,119.05,,,,,,,
9983.64,0.00455,119.05,,,,,,,
9983.69,0.0046,118.67,,,,,,,
9983.74,0.00465,118.81,,,,,,,
9983.79,0.0047,118.56,,,,,,,
9983.8,0.00471,118.65,,,,,,,
9983.85,0.00475,118.48,,,,,,,
9983.89,0.0048,118.49,,,,,,,
9983.95,0.00485,118.69,,,,,,,
9984.0,0.0049,118.65,,,,,,,
15986.71,0.00499,89.49,,,,,,,
15986.8,0.00502,84.81,,,,,,,
15986.87,0.00493,74.8,,,,,,,
15986.9,0.00488,70.77,,,,,,,
15986.92,0.00483,66.66,,,,,,,
15986.95,0.00478,62.92,,,,,,,
15987.0,0.00473,59.23,,,,,,,
15987.05,0.00468,55.7,,,,,,,
15987.11,0.00463,52.13,,,,,,,
15987.17,0.00458,48.88,,,,,,,
15987.23,0.00453,45.34,,,,,,,
15987.28,0.00448,42.03,,,,,,,
15987.3,0.00445,40.26,,,,,,,
15987.32,0.00443,38.81,,,,,,,
15987.37,0.00438,35.89,,,,,,,
15987.42,0.00433,33.05,,,,,,,
15987.48,0.00428,30.2,,,,,,,
15987.53,0.00423,27.28,,,,,,,
15987.58,0.00417,24.57,,,,,,,
15987.64,0.00412,21.47,,,,,,,
15987.69,0.00407,18.6,,,,,,,
15987.74,0.00402,16.04,,,,,,,
15987.79,0.00397,13.34,,,,,,,
15987.8,0.00396,12.63,,,,,,,
15987.84,0.00392,10.76,,,,,,,
15987.89,0.00387,8.45,,,,,,,
15987.95,0.00382,5.75,,,,,,,
15988.01,0.00377,3.65,,,,,,,
15988.12,0.00372,1.8,,,,,,,
15988.18,0.00367,-0.46,,,,,,,
15988.24,0.00362,-3.1,,,,,,,
15988.29,0.00357,-5.63,,,,,,,
15988.3,0.00355,-6.27,,,,,,,
15988.33,0.00352,-7.78,,,,,,,
15988.38,0.00347,-10.01,,,,,,,
15988.43,0.00342,-11.78,,,,,,,
15988.49,0.00337,-13.85,,,,,,,
15988.53,0.00332,-16.62,,,,,,,
15988.56,0.00326,-18.66,,,,,,,
15988.59,0.00321,-20.63,,,,,,,
15988.64,0.00316,-22.12,,,,,,,
15988.71,0.00311,-23.02,,,,,,,
15988.78,0.00306,-24.45,,,,,,,
15988.8,0.00304,-25.36,,,,,,,
15988.83,0.00301,-26.38,,,,,,,
15988.87,0.00296,-28.71,,,,,,,
15988.9,0.00291,-30.96,,,,,,,
15988.93,0.00286,-33.16,,,,,,,
15988.96,0.00281,-35.28,,,,,,,
15989.0,0.00276,-36.67,,,,,,,
15989.04,0.00271,-38.08,,,,,,,
15989.09,0.00265,-38.88,,,,,,,
15989.15,0.0026,-39.69,,,,,,,
15989.2,0.00255,-40.5,,,,,,,
15989.25,0.0025,-41.85,,,,,,,
15989.3,0.00245,-42.87,,,,,,,
15989.3,0.00245,-43.2,,,,,,,
15989.35,0.0024,-44.32,,,,,,,
15989.4,0.00235,-45.38,,,,,,,
15989.45,0.0023,-46.41,,,,,,,
15989.5,0.00225,-47.39,,,,,,,
15989.55,0.0022,-48.45,,,,,,,
15989.6,0.00215,-49.67,,,,,,,
15989.65,0.0021,-50.48,,,,,,,
15989.7,0.00205,-51.4,,,,,,,
15989.75,0.002,-52.11,,,,,,,
15989.8,0.00195,-53.08,,,,,,,
15989.86,0.0019,-53.95,,,,,,,
15989.9,0.00184,-54.66,,,,,,,
15989.95,0.00179,-55.58,,,,,,,
15990.0,0.00174,-56.19,,,,,,,
15990.05,0.00169,-56.53,,,,,,,
15990.1,0.00164,-56.9,,,,,,,
15990.16,0.00159,-57.56,,,,,,,
15990.2,0.00154,-58.11,,,,,,,
15990.25,0.00149,-58.66,,,,,,,
15990.3,0.00144,-59.21,,,,,,,
15990.31,0.00144,-59.25,,,,,,,
15990.35,0.00139,-59.98,,,,,,,
15990.4,0.00134,-60.44,,,,,,,
15990.46,0.00129,-60.89,,,,,,,
15990.51,0.00124,-61.32,,,,,,,
15990.56,0.00119,-62.04,,,,,,,
15990.6,0.00114,-62.6,,,,,,,
15990.65,0.00109,-62.97,,,,,,,
15990.7,0.00104,-63.05,,,,,,,
15990.76,0.00099,-63.41,,,,,,,
15990.8,0.00094,-63.71,,,,,,,
15990.81,0.00093,-63.73,,,,,,,
15990.86,0.00088,-64.09,,,,,,,
15990.91,0.00083,-64.44,,,,,,,
15990.96,0.00078,-65.21,,,,,,,
15991.01,0.00073,-65.72,,,,,,,
15991.06,0.00068,-66.4,,,,,,,
15991.11,0.00063,-66.37,,,,,,,
15991.16,0.00058,-66.6,,,,,,,
15991.21,0.00053,-66.79,,,,,,,
15991.26,0.00048,-67.28,,,,,,,
15991.3,0.00044,-67.39,,,,,,,
15991.31,0.00043,-67.26,,,,,,,
15991.36,0.00038,-67.37,,,,,,,
15991.41,0.00033,-67.85,,,,,,,
15991.46,0.00028,-67.97,,,,,,,
15991.51,0.00023,-68.24,,,,,,,
15991.56,0.00018,-68.46,,,,,,,
15991.61,0.00013,-68.54,,,,,,,
15991.67,7e-05,-68.85,,,,,,,
15991.72,2e-05,-69.19,,,,,,,
15991.76,-3e-05,-69.59,,,,,,,
15991.8,-6e-05,-69.76,,,,,,,
15991.82,-8e-05,-69.71,,,,,,,
15991.86,-0.00013,-70.09,,,,,,,
15991.91,-0.00018,-70.25,,,,,,,
15991.96,-0.00023,-70.23,,,,,,,
15992.02,-0.00028,-70.41,,,,,,,
15992.07,-0.00033,-70.82,,,,,,,
15992.12,-0.00038,-71.03,,,,,,,
15992.16,-0.00043,-71.16,,,,,,,
15992.21,-0.00048,-71.26,,,,,,,
15992.27,-0.00053,-71.27,,,,,,,
15992.3,-0.00056,-71.3,,,,,,,
15992.32,-0.00058,-71.48,,,,,,,
15992.37,-0.00063,-71.55,,,,,,,
15992.42,-0.00068,-71.8,,,,,,,
15992.47,-0.00073,-72.09,,,,,,,
15992.52,-0.00078,-72.39,,,,,,,
15992.57,-0.00083,-72.48,,,,,,,
15992.62,-0.00088,-72.57,,,,,,,
15992.67,-0.00093,-72.59,,,,,,,
15992.72,-0.00098,-73.01,,,,,,,
15992.77,-0.00104,-73.09,,,,,,,
15992.8,-0.00106,-73.13,,,,,,,
15992.82,-0.00109,-73.28,,,,,,,
15992.87,-0.00114,-73.17,,,,,,,
15992.92,-0.00119,-73.25,,,,,,,
15992.98,-0.00124,-73.29,,,,,,,
15993.03,-0.00129,-73.41,,,,,,,
15993.07,-0.00134,-73.65,,,,,,,
15993.12,-0.00139,-73.73,,,,,,,
15993.18,-0.00144,-74.16,,,,,,,
15993.23,-0.00149,-74.26,,,,,,,
15993.28,-0.00154,-74.26,,,,,,,
15993.3,-0.00156,-74.36,,,,,,,
15993.33,-0.00159,-74.56,,,,,,,
15993.38,-0.00164,-74.56,,,,,,,
15993.43,-0.00169,-74.98,,,,,,,
15993.48,-0.00174,-75.3,,,,,,,
15993.53,-0.00179,-75.36,,,,,,,
15993.58,-0.00184,-75.64,,,,,,,
15993.63,-0.00189,-75.63,,,,,,,
15993.68,-0.00195,-75.79,,,,,,,
15993.73,-0.002,-75.91,,,,,,,
15993.78,-0.00205,-75.97,,,,,,,
15993.8,-0.00207,-76.0,,,,,,,
15993.83,-0.0021,-75.91,,,,,,,
15993.88,-0.00215,-76.19,,,,,,,
15993.93,-0.0022,-76.14,,,,,,,
15993.98,-0.00225,-75.96,,,,,,,
15994.03,-0.0023,-76.19,,,,,,,
15994.09,-0.00235,-76.14,,,,,,,
15994.14,-0.0024,-76.34,,,,,,,
15994.19,-0.00245,-76.64,,,,,,,
15994.24,-0.0025,-76.63,,,,,,,
15994.29,-0.00255,-76.83,,,,,,,
15994.3,-0.00257,-76.86,,,,,,,
15994.34,-0.0026,-76.98,,,,,,,
15994.39,-0.00265,-77.01,,,,,,,
15994.44,-0.0027,-77.31,,,,,,,
15994.49,-0.00275,-77.54,,,,,,,
15994.54,-0.0028,-77.94,,,,,,,
15994.58,-0.00285,-77.98,,,,,,,
15994.63,-0.0029,-77.89,,,,,,,
15994.69,-0.00296,-77.88,,,,,,,
15994.74,-0.00301,-77.9,,,,,,,
15994.79,-0.00306,-77.61,,,,,,,
15994.8,-0.00307,-77.76,,,,,,,
15994.84,-0.00311,-77.83,,,,,,,
15994.89,-0.00316,-77.78,,,,,,,
15994.95,-0.00321,-77.8,,,,,,,
15994.99,-0.00326,-77.91,,,,,,,
15995.04,-0.00331,-77.92,,,,,,,
15995.09,-0.00336,-78.06,,,,,,,
15995.14,-0.00341,-78.08,,,,,,,
15995.19,-0.00346,-78.07,,,,,,,
15995.24,-0.00351,-78.11,,,,,,,
15995.29,-0.00356,-78.22,,,,,,,
15995.3,-0.00357,-78.29,,,,,,,
15995.34,-0.00361,-78.52,,,,,,,
15995.39,-0.00366,-78.52,,,,,,,
15995.44,-0.00371,-78.56,,,,,,,
15995.5,-0.00376,-78.59,,,,,,,
15995.55,-0.00381,-78.7,,,,,,,
15995.59,-0.00386,-79.14,,,,,,,
15995.64,-0.00391,-79.18,,,,,,,
15995.69,-0.00396,-79.42,,,,,,,
15995.74,-0.00401,-79.25,,,,,,,
15995.8,-0.00406,-79.02,,,,,,,
15995.8,-0.00407,-79.09,,,,,,,
15995.85,-0.00412,-79.11,,,,,,,
15995.91,-0.00417,-79.53,,,,,,,
15995.96,-0.00422,-79.92,,,,,,,
15996.0,-0.00427,-80.42,,,,,,,
15996.06,-0.00432,-80.88,,,,,,,
15996.11,-0.00437,-81.22,,,,,,,
15996.16,-0.00442,-81.71,,,,,,,
15996.23,-0.00447,-82.49,,,,,,,
15996.27,-0.00452,-83.67,,,,,,,
15996.3,-0.00454,-84.3,,,,,,,
15996.33,-0.00457,-84.94,,,,,,,
15996.38,-0.00463,-86.61,,,,,,,
15996.44,-0.00468,-88.29,,,,,,,
15996.49,-0.00473,-89.93,,,,,,,
15996.54,-0.00478,-91.39,,,,,,,
15996.58,-0.00483,-92.78,,,,,,,
15996.64,-0.00488,-94.4,,,,,,,
15996.69,-0.00493,-95.77,,,,,,,
15996.74,-0.00498,-96.9,,,,,,,
15996.8,-0.005,-94.09,,,,,,,
15996.9,-0.00493,-78.61,,,,,,,
15996.94,-0.00488,-71.68,,,,,,,
15996.97,-0.00483,-65.45,,,,,,,
15997.01,-0.00478,-58.97,,,,,,,
15997.04,-0.00473,-53.7,,,,,,,
15997.09,-0.00468,-48.05,,,,,,,
15997.14,-0.00463,-42.76,,,,,,,
15997.19,-0.00457,-38.21,,,,,,,
15997.24,-0.00452,-33.68,,,,,,,
15997.29,-0.00447,-29.62,,,,,,,
15997.3,-0.00446,-28.48,,,,,,,
15997.34,-0.00442,-25.5,,,,,,,
15997.39,-0.00437,-22.3,,,,,,,
15997.43,-0.00432,-18.82,,,,,,,
15997.49,-0.00427,-15.65,,,,,,,
15997.54,-0.00422,-12.58,,,,,,,
15997.59,-0.00417,-9.28,,,,,,,
15997.64,-0.00412,-6.32,,,,,,,
15997.69,-0.00407,-3.94,,,,,,,
15997.74,-0.00402,-1.32,,,,,,,
15997.79,-0.00397,1.35,,,,,,,
15997.8,-0.00395,1.88,,,,,,,
15997.85,-0.00392,4.11,,,,,,,
15997.9,-0.00387,6.68,,,,,,,
15997.95,-0.00381,9.09,,,,,,,
15998.0,-0.00376,11.44,,,,,,,
15998.06,-0.00371,14.29,,,,,,,
15998.11,-0.00366,16.65,,,,,,,
15998.16,-0.00361,18.81,,,,,,,
15998.21,-0.00356,21.19,,,,,,,
15998.26,-0.00351,23.45,,,,,,,
15998.3,-0.00347,25.19,,,,,,,
15998.31,-0.00346,25.39,,,,,,,
15998.37,-0.00341,26.84,,,,,,,
15998.45,-0.00336,28.24,,,,,,,
15998.52,-0.00331,29.6,,,,,,,
15998.58,-0.00326,31.38,,,,,,,
15998.64,-0.00321,33.22,,,,,,,
15998.69,-0.00316,35.03,,,,,,,
15998.73,-0.00311,37.21,,,,,,,
15998.76,-0.00306,39.72,,,,,,,
15998.79,-0.00301,42.07,,,,,,,
15998.8,-0.00299,42.69,,,,,,,
15998.82,-0.00296,44.0,,,,,,,
15998.87,-0.00291,44.87,,,,,,,
15998.94,-0.00286,45.01,,,,,,,
15999.01,-0.00281,45.65,,,,,,,
15999.06,-0.00275,46.95,,,,,,,
15999.11,-0.0027,48.36,,,,,,,
15999.16,-0.00265,49.51,,,,,,,
15999.21,-0.0026,50.35,,,,,,,
15999.27,-0.00255,51.6,,,,,,,
15999.3,-0.00252,52.21,,,,,,,
15999.32,-0.0025,52.49,,,,,,,
15999.37,-0.00245,53.62,,,,,,,
15999.42,-0.0024,54.63,,,,,,,
15999.47,-0.00235,55.9,,,,,,,
15999.52,-0.0023,56.94,,,,,,,
15999.57,-0.00225,58.16,,,,,,,
15999.61,-0.0022,59.43,,,,,,,
15999.64,-0.00215,60.92,,,,,,,
15999.68,-0.0021,62.31,,,,,,,
15999.71,-0.00205,63.38,,,,,,,
15999.75,-0.002,64.09,,,,,,,
15999.8,-0.00194,64.6,,,,,,,
15999.86,-0.00189,64.64,,,,,,,
15999.91,-0.00184,65.02,,,,,,,
15999.96,-0.00179,65.48,,,,,,,
16000.01,-0.00174,66.25,,,,,,,
16000.06,-0.00169,66.86,,,,,,,
16000.11,-0.00164,67.94,,,,,,,
16000.16,-0.00159,68.53,,,,,,,
16000.21,-0.00154,69.26,,,,,,,
16000.26,-0.00149,69.82,,,,,,,
16000.3,-0.00145,70.25,,,,,,,
16000.31,-0.00144,70.39,,,,,,,
16000.35,-0.00139,70.56,,,,,,,
16000.41,-0.00134,71.04,,,,,,,
16000.45,-0.00129,71.44,,,,,,,
16000.51,-0.00124,71.96,,,,,,,
16000.56,-0.00119,72.19,,,,,,,
16000.61,-0.00114,72.63,,,,,,,
16000.66,-0.00109,73.17,,,,,,,
16000.71,-0.00104,73.57,,,,,,,
16000.76,-0.00099,73.99,,,,,,,
16000.8,-0.00094,74.38,,,,,,,
16000.81,-0.00094,74.49,,,,,,,
16000.86,-0.00088,74.54,,,,,,,
16000.91,-0.00083,74.67,,,,,,,
16000.96,-0.00078,75.22,,,,,,,
16001.01,-0.00073,75.7,,,,,,,
16001.06,-0.00068,76.18,,,,,,,
16001.11,-0.00063,76.4,,,,,,,
16001.16,-0.00058,76.41,,,,,,,
16001.21,-0.00053,76.89,,,,,,,
16001.26,-0.00048,76.97,,,,,,,
16001.3,-0.00044,77.13,,,,,,,
16001.31,-0.00043,77.27,,,,,,,
16001.36,-0.00038,77.5,,,,,,,
16001.41,-0.00033,77.81,,,,,,,
16001.47,-0.00028,77.96,,,,,,,
16001.51,-0.00023,78.25,,,,,,,
16001.56,-0.00018,78.49,,,,,,,
16001.61,-0.00013,78.47,,,,,,,
16001.67,-8e-05,78.42,,,,,,,
16001.72,-3e-05,78.78,,,,,,,
16001.77,3e-05,79.19,,,,,,,
16001.8,6e-05,79.21,,,,,,,
16001.82,8e-05,79.23,,,,,,,
16001.87,0.00013,79.39,,,,,,,
16001.92,0.00018,79.44,,,,,,,
16001.97,0.00023,79.61,,,,,,,
16002.02,0.00028,79.92,,,,,,,
16002.07,0.00033,80.33,,,,,,,
16002.12,0.00038,80.52,,,,,,,
16002.17,0.00043,80.48,,,,,,,
16002.23,0.00048,80.79,,,,,,,
16002.27,0.00053,80.96,,,,,,,
16002.3,0.00056,81.11,,,,,,,
16002.32,0.00058,81.06,,,,,,,
16002.37,0.00063,81.03,,,,,,,
16002.42,0.00068,80.97,,,,,,,
16002.47,0.00073,81.02,,,,,,,
16002.52,0.00078,80.91,,,,,,,
16002.58,0.00083,81.01,,,,,,,
16002.63,0.00088,81.36,,,,,,,
16002.68,0.00093,81.42,,,,,,,
16002.73,0.00099,81.83,,,,,,,
16002.78,0.00104,82.01,,,,,,,
16002.8,0.00106,82.23,,,,,,,
16002.83,0.00109,82.26,,,,,,,
16002.88,0.00114,82.29,,,,,,,
16002.93,0.00119,82.38,,,,,,,
16002.98,0.00124,82.39,,,,,,,
16003.03,0.00129,82.53,,,,,,,
16003.08,0.00134,82.89,,,,,,,
16003.13,0.00139,83.05,,,,,,,
16003.18,0.00144,83.07,,,,,,,
16003.23,0.00149,83.06,,,,,,,
16003.28,0.00154,83.24,,,,,,,
16003.3,0.00156,83.28,,,,,,,
16003.33,0.00159,83.3,,,,,,,
16003.38,0.00164,83.46,,,,,,,
16003.44,0.00169,83.34,,,,,,,
16003.49,0.00174,83.67,,,,,,,
16003.53,0.00179,84.06,,,,,,,
16003.58,0.00184,84.16,,,,,,,
16003.63,0.0019,84.06,,,,,,,
16003.68,0.00195,84.12,,,,,,,
16003.74,0.002,83.81,,,,,,,
16003.79,0.00205,84.01,,,,,,,
16003.8,0.00206,84.06,,,,,,,
16003.84,0.0021,84.26,,,,,,,
16003.89,0.00215,84.35,,,,,,,
16003.94,0.0022,84.5,,,,,,,
16003.99,0.00225,84.6,,,,,,,
16004.04,0.0023,84.58,,,,,,,
16004.09,0.00235,84.86,,,,,,,
16004.14,0.0024,84.61,,,,,,,
16004.19,0.00245,84.9,,,,,,,
16004.24,0.0025,84.87,,,,,,,
16004.3,0.00255,85.06,,,,,,,
16004.3,0.00256,85.05,,,,,,,
16004.34,0.0026,85.25,,,,,,,
16004.39,0.00265,85.5,,,,,,,
16004.44,0.0027,85.64,,,,,,,
16004.49,0.00275,85.94,,,,,,,
16004.54,0.0028,85.95,,,,,,,
16004.59,0.00285,86.05,,,,,,,
16004.64,0.0029,85.95,,,,,,,
16004.69,0.00295,86.06,,,,,,,
16004.74,0.003,86.21,,,,,,,
16004.79,0.00305,86.33,,,,,,,
16004.8,0.00306,86.22,,,,,,,
16004.85,0.00311,86.28,,,,,,,
16004.89,0.00316,86.3,,,,,,,
16004.94,0.00321,86.42,,,,,,,
16004.99,0.00326,86.6,,,,,,,
16005.04,0.00331,86.82,,,,,,,
16005.1,0.00336,86.92,,,,,,,
16005.15,0.00341,86.89,,,,,,,
16005.2,0.00346,87.09,,,,,,,
16005.25,0.00351,87.06,,,,,,,
16005.3,0.00356,87.08,,,,,,,
16005.3,0.00357,87.14,,,,,,,
16005.35,0.00361,87.34,,,,,,,
16005.39,0.00366,87.21,,,,,,,
16005.44,0.00371,87.25,,,,,,,
16005.5,0.00376,86.98,,,,,,,
16005.55,0.00381,87.07,,,,,,,
16005.6,0.00386,86.99,,,,,,,
16005.65,0.00391,87.03,,,,,,,
16005.7,0.00396,87.41,,,,,,,
16005.75,0.00401,87.49,,,,,,,
16005.8,0.00406,87.67,,,,,,,
16005.85,0.00412,87.89,,,,,,,
16005.9,0.00417,87.92,,,,,,,
16005.95,0.00422,87.95,,,,,,,
16006.0,0.00427,87.88,,,,,,,
16006.05,0.00432,88.04,,,,,,,
16006.1,0.00437,88.15,,,,,,,
16006.15,0.00442,88.29,,,,,,,
16006.2,0.00447,88.52,,,,,,,
16006.25,0.00452,88.37,,,,,,,
16006.3,0.00457,88.39,,,,,,,
16006.3,0.00457,88.43,,,,,,,
16006.36,0.00462,88.5,,,,,,,
16006.4,0.00467,88.39,,,,,,,
16006.45,0.00472,88.53,,,,,,,
16006.51,0.00477,88.73,,,,,,,
16006.56,0.00482,88.96,,,,,,,
16006.61,0.00487,88.92,,,,,,,
16006.66,0.00492,89.07,,,,,,,
