time,strain,stress,temperature,type,strain_rate,max_strain,title,youngs,poissons
0.0,5e-05,11.56,950,fatigue,0.0001,0.00501,43-8,144000,0.3
0.22,7e-05,13.09,,,,,,,
0.62,0.0001,17.0,,,,,,,
0.97,0.00015,22.07,,,,,,,
1.22,0.00018,26.39,,,,,,,
1.57,0.0002,30.05,,,,,,,
2.2,0.00025,35.0,,,,,,,
2.22,0.00025,35.09,,,,,,,
2.81,0.0003,37.6,,,,,,,
3.22,0.00034,43.87,,,,,,,
3.41,0.00035,45.29,,,,,,,
3.8,0.0004,48.35,,,,,,,
4.07,0.00045,54.38,,,,,,,
4.22,0.00047,56.55,,,,,,,
4.57,0.0005,61.93,,,,,,,
5.03,0.00055,68.01,,,,,,,
5.22,0.00057,69.84,,,,,,,
5.57,0.0006,72.77,,,,,,,
6.01,0.00065,77.09,,,,,,,
6.22,0.00066,78.33,,,,,,,
6.69,0.0007,83.78,,,,,,,
7.22,0.00074,92.18,,,,,,,
7.33,0.00075,94.29,,,,,,,
7.87,0.0008,106.08,,,,,,,
8.22,0.00085,111.69,,,,,,,
8.25,0.00085,112.02,,,,,,,
8.76,0.0009,120.42,,,,,,,
9.19,0.00095,125.06,,,,,,,
9.22,0.00096,125.23,,,,,,,
9.55,0.001,126.11,,,,,,,
10.17,0.00105,125.58,,,,,,,
10.22,0.00106,125.88,,,,,,,
10.6,0.0011,127.02,,,,,,,
11.14,0.00115,127.0,,,,,,,
11.22,0.00115,127.22,,,,,,,
11.6,0.0012,129.31,,,,,,,
12.13,0.00125,130.15,,,,,,,
12.22,0.00126,130.38,,,,,,,
12.6,0.0013,131.2,,,,,,,
13.05,0.00135,131.28,,,,,,,
13.22,0.00138,130.81,,,,,,,
13.62,0.0014,130.05,,,,,,,
13.94,0.00145,130.45,,,,,,,
14.22,0.00148,128.23,,,,,,,
14.58,0.0015,127.22,,,,,,,
15.08,0.00155,128.2,,,,,,,
15.22,0.00157,128.61,,,,,,,
15.47,0.0016,129.95,,,,,,,
15.88,0.00165,128.48,,,,,,,
16.22,0.0017,124.66,,,,,,,
16.28,0.0017,123.77,,,,,,,
16.88,0.00175,116.21,,,,,,,
17.22,0.00178,115.96,,,,,,,
17.56,0.0018,116.74,,,,,,,
18.08,0.00185,119.52,,,,,,,
18.22,0.00186,120.86,,,,,,,
18.5,0.0019,123.18,,,,,,,
19.08,0.00195,123.39,,,,,,,
19.22,0.00197,124.34,,,,,,,
19.45,0.002,125.23,,,,,,,
19.9,0.00205,123.37,,,,,,,
20.22,0.0021,121.19,,,,,,,
20.27,0.0021,120.7,,,,,,,
20.82,0.00215,117.07,,,,,,,
21.22,0.00219,114.02,,,,,,,
21.34,0.0022,113.36,,,,,,,
21.87,0.00225,111.92,,,,,,,
22.22,0.00229,111.27,,,,,,,
22.35,0.0023,111.09,,,,,,,
22.93,0.00235,111.03,,,,,,,
23.22,0.00239,111.34,,,,,,,
23.33,0.0024,110.95,,,,,,,
23.98,0.00245,111.09,,,,,,,
24.22,0.00248,112.49,,,,,,,
24.37,0.0025,112.69,,,,,,,
24.92,0.00255,110.98,,,,,,,
25.22,0.00259,110.97,,,,,,,
25.32,0.0026,110.63,,,,,,,
25.84,0.00265,108.48,,,,,,,
26.22,0.00268,108.62,,,,,,,
26.41,0.0027,109.18,,,,,,,
26.97,0.00275,110.67,,,,,,,
27.22,0.00279,111.64,,,,,,,
27.35,0.0028,111.39,,,,,,,
27.76,0.00285,109.8,,,,,,,
28.22,0.00289,108.12,,,,,,,
28.34,0.0029,108.09,,,,,,,
28.89,0.00295,109.01,,,,,,,
29.22,0.00299,109.39,,,,,,,
29.37,0.003,109.6,,,,,,,
29.84,0.00305,109.7,,,,,,,
30.22,0.00309,109.39,,,,,,,
30.35,0.0031,109.41,,,,,,,
30.76,0.00315,108.17,,,,,,,
31.22,0.0032,106.06,,,,,,,
31.22,0.0032,106.03,,,,,,,
31.74,0.00325,103.26,,,,,,,
32.22,0.0033,101.7,,,,,,,
32.27,0.0033,101.81,,,,,,,
32.8,0.00335,101.58,,,,,,,
33.22,0.00339,101.3,,,,,,,
33.44,0.0034,102.54,,,,,,,
33.83,0.00345,104.78,,,,,,,
34.22,0.00349,104.57,,,,,,,
34.38,0.0035,104.97,,,,,,,
34.75,0.00355,104.96,,,,,,,
35.22,0.00359,105.07,,,,,,,
35.31,0.0036,105.24,,,,,,,
35.67,0.00365,103.61,,,,,,,
36.22,0.0037,100.83,,,,,,,
36.23,0.0037,100.79,,,,,,,
36.88,0.00375,101.61,,,,,,,
37.22,0.00378,104.18,,,,,,,
37.35,0.0038,105.07,,,,,,,
37.87,0.00385,105.18,,,,,,,
38.22,0.00388,105.98,,,,,,,
38.43,0.0039,107.58,,,,,,,
38.78,0.00395,109.37,,,,,,,
39.22,0.004,106.65,,,,,,,
39.27,0.004,106.39,,,,,,,
39.91,0.00405,104.65,,,,,,,
40.22,0.00409,106.1,,,,,,,
40.39,0.0041,107.01,,,,,,,
40.88,0.00415,108.73,,,,,,,
41.22,0.00419,109.58,,,,,,,
41.5,0.0042,111.93,,,,,,,
41.8,0.00425,113.76,,,,,,,
42.22,0.0043,111.59,,,,,,,
42.31,0.0043,111.15,,,,,,,
42.68,0.00435,109.07,,,,,,,
43.22,0.00439,106.63,,,,,,,
44.22,0.00434,89.97,,,,,,,
44.62,0.0043,82.53,,,,,,,
45.11,0.00425,75.34,,,,,,,
45.22,0.00425,74.05,,,,,,,
45.78,0.0042,64.94,,,,,,,
46.16,0.00415,57.95,,,,,,,
46.22,0.00415,57.23,,,,,,,
46.64,0.0041,53.1,,,,,,,
47.22,0.00406,47.23,,,,,,,
47.33,0.00405,45.57,,,,,,,
47.82,0.004,36.03,,,,,,,
48.22,0.00397,29.26,,,,,,,
48.36,0.00395,26.66,,,,,,,
48.86,0.0039,18.66,,,,,,,
49.22,0.00386,14.08,,,,,,,
49.3,0.00385,13.17,,,,,,,
49.84,0.0038,6.91,,,,,,,
50.22,0.00377,2.34,,,,,,,
50.67,0.00375,1.24,,,,,,,
51.22,0.00371,-0.5,,,,,,,
51.35,0.0037,-0.61,,,,,,,
51.85,0.00365,-8.14,,,,,,,
52.0,0.0036,-16.35,,,,,,,
52.12,0.00355,-20.95,,,,,,,
52.22,0.00354,-21.51,,,,,,,
52.72,0.0035,-24.9,,,,,,,
53.22,0.00346,-29.86,,,,,,,
53.25,0.00345,-30.33,,,,,,,
53.72,0.0034,-35.32,,,,,,,
54.22,0.00336,-39.65,,,,,,,
54.26,0.00335,-40.09,,,,,,,
54.78,0.0033,-44.25,,,,,,,
55.22,0.00325,-47.78,,,,,,,
55.24,0.00325,-47.88,,,,,,,
55.82,0.0032,-52.76,,,,,,,
56.19,0.00315,-56.2,,,,,,,
56.22,0.00315,-56.3,,,,,,,
56.66,0.0031,-56.16,,,,,,,
57.21,0.00305,-58.49,,,,,,,
57.22,0.00305,-58.54,,,,,,,
57.7,0.003,-61.52,,,,,,,
58.22,0.00295,-63.41,,,,,,,
58.23,0.00295,-63.47,,,,,,,
58.99,0.0029,-72.59,,,,,,,
59.22,0.00288,-78.14,,,,,,,
59.37,0.00285,-80.8,,,,,,,
59.75,0.0028,-82.72,,,,,,,
60.22,0.00276,-82.37,,,,,,,
60.25,0.00275,-82.41,,,,,,,
60.92,0.0027,-87.91,,,,,,,
61.2,0.00265,-90.83,,,,,,,
61.22,0.00265,-90.89,,,,,,,
61.69,0.0026,-90.64,,,,,,,
62.09,0.00255,-87.83,,,,,,,
62.22,0.00254,-87.02,,,,,,,
62.77,0.0025,-91.11,,,,,,,
63.21,0.00245,-92.55,,,,,,,
63.22,0.00245,-92.51,,,,,,,
63.74,0.0024,-93.48,,,,,,,
64.14,0.00235,-93.92,,,,,,,
64.22,0.00234,-93.69,,,,,,,
64.67,0.0023,-94.19,,,,,,,
65.09,0.00225,-92.59,,,,,,,
65.22,0.00225,-92.04,,,,,,,
65.65,0.0022,-95.47,,,,,,,
66.18,0.00215,-98.29,,,,,,,
66.22,0.00215,-98.4,,,,,,,
66.65,0.0021,-99.76,,,,,,,
67.16,0.00205,-99.46,,,,,,,
67.22,0.00204,-99.52,,,,,,,
67.48,0.002,-98.59,,,,,,,
68.13,0.00195,-97.86,,,,,,,
68.22,0.00194,-97.95,,,,,,,
68.67,0.0019,-97.55,,,,,,,
69.11,0.00185,-100.15,,,,,,,
69.22,0.00183,-100.07,,,,,,,
69.56,0.0018,-97.75,,,,,,,
70.08,0.00175,-96.8,,,,,,,
70.22,0.00174,-96.83,,,,,,,
70.53,0.0017,-96.96,,,,,,,
71.15,0.00165,-98.58,,,,,,,
71.22,0.00165,-99.12,,,,,,,
71.73,0.0016,-103.91,,,,,,,
72.15,0.00155,-107.57,,,,,,,
72.22,0.00154,-107.91,,,,,,,
72.54,0.0015,-108.3,,,,,,,
72.93,0.00145,-106.32,,,,,,,
73.22,0.00141,-103.61,,,,,,,
73.33,0.0014,-102.52,,,,,,,
74.06,0.00135,-99.86,,,,,,,
74.22,0.00133,-100.83,,,,,,,
74.41,0.0013,-100.75,,,,,,,
74.96,0.00125,-99.95,,,,,,,
75.22,0.00122,-100.09,,,,,,,
75.33,0.0012,-99.89,,,,,,,
76.02,0.00115,-97.83,,,,,,,
76.22,0.00113,-99.38,,,,,,,
76.53,0.0011,-101.56,,,,,,,
77.0,0.00105,-103.5,,,,,,,
77.22,0.00104,-104.18,,,,,,,
77.45,0.001,-105.36,,,,,,,
77.96,0.00095,-104.43,,,,,,,
78.22,0.00092,-103.9,,,,,,,
78.33,0.0009,-103.37,,,,,,,
78.82,0.00085,-100.55,,,,,,,
79.22,0.00081,-98.52,,,,,,,
79.3,0.0008,-98.34,,,,,,,
79.89,0.00075,-93.85,,,,,,,
80.22,0.00072,-94.18,,,,,,,
80.39,0.0007,-94.6,,,,,,,
80.91,0.00065,-96.22,,,,,,,
81.22,0.00062,-96.78,,,,,,,
81.45,0.0006,-97.7,,,,,,,
81.96,0.00055,-100.94,,,,,,,
82.22,0.00052,-101.9,,,,,,,
82.39,0.0005,-102.0,,,,,,,
82.97,0.00045,-102.99,,,,,,,
83.22,0.00042,-103.97,,,,,,,
83.47,0.0004,-104.66,,,,,,,
83.98,0.00035,-106.21,,,,,,,
84.22,0.00032,-106.95,,,,,,,
84.41,0.0003,-107.0,,,,,,,
84.91,0.00025,-106.69,,,,,,,
85.22,0.00021,-106.32,,,,,,,
85.36,0.0002,-105.96,,,,,,,
85.82,0.00015,-104.53,,,,,,,
86.22,0.00012,-104.52,,,,,,,
86.4,0.0001,-105.05,,,,,,,
86.9,5e-05,-105.83,,,,,,,
87.22,0.0,-104.36,,,,,,,
87.3,-0.0,-103.94,,,,,,,
87.81,-5e-05,-102.51,,,,,,,
88.22,-8e-05,-102.3,,,,,,,
88.38,-0.0001,-102.73,,,,,,,
88.9,-0.00015,-103.14,,,,,,,
89.22,-0.00018,-104.11,,,,,,,
89.38,-0.0002,-104.97,,,,,,,
89.93,-0.00025,-105.12,,,,,,,
90.22,-0.00029,-105.72,,,,,,,
90.34,-0.0003,-105.48,,,,,,,
90.89,-0.00035,-105.28,,,,,,,
91.22,-0.00038,-105.8,,,,,,,
91.37,-0.0004,-106.01,,,,,,,
91.82,-0.00045,-105.66,,,,,,,
92.22,-0.00048,-105.54,,,,,,,
92.38,-0.0005,-105.96,,,,,,,
92.75,-0.00055,-105.49,,,,,,,
93.22,-0.00059,-103.5,,,,,,,
93.39,-0.0006,-103.48,,,,,,,
93.92,-0.00065,-106.39,,,,,,,
94.22,-0.00068,-107.45,,,,,,,
94.43,-0.0007,-107.63,,,,,,,
94.88,-0.00075,-108.74,,,,,,,
95.22,-0.00079,-108.31,,,,,,,
95.34,-0.0008,-108.04,,,,,,,
95.86,-0.00085,-108.57,,,,,,,
96.22,-0.00088,-107.25,,,,,,,
96.42,-0.0009,-107.61,,,,,,,
96.8,-0.00095,-108.21,,,,,,,
97.22,-0.00099,-106.04,,,,,,,
97.34,-0.001,-105.78,,,,,,,
97.84,-0.00105,-107.6,,,,,,,
98.22,-0.00108,-107.69,,,,,,,
98.36,-0.0011,-108.08,,,,,,,
98.91,-0.00115,-107.63,,,,,,,
99.22,-0.00119,-108.63,,,,,,,
99.34,-0.0012,-108.75,,,,,,,
99.77,-0.00125,-106.73,,,,,,,
100.22,-0.0013,-104.53,,,,,,,
100.33,-0.0013,-104.32,,,,,,,
100.83,-0.00135,-104.97,,,,,,,
101.22,-0.00139,-104.31,,,,,,,
101.32,-0.0014,-104.15,,,,,,,
101.82,-0.00145,-103.3,,,,,,,
102.22,-0.00149,-102.81,,,,,,,
102.42,-0.0015,-103.34,,,,,,,
102.85,-0.00155,-104.57,,,,,,,
103.22,-0.00159,-104.53,,,,,,,
103.37,-0.0016,-104.55,,,,,,,
103.82,-0.00165,-105.75,,,,,,,
104.22,-0.00168,-105.65,,,,,,,
104.42,-0.0017,-106.54,,,,,,,
104.76,-0.00175,-106.12,,,,,,,
105.22,-0.0018,-104.88,,,,,,,
105.31,-0.0018,-104.7,,,,,,,
105.87,-0.00185,-104.83,,,,,,,
106.22,-0.00189,-105.16,,,,,,,
106.43,-0.0019,-106.24,,,,,,,
106.84,-0.00195,-106.94,,,,,,,
107.22,-0.00199,-106.88,,,,,,,
107.37,-0.002,-107.08,,,,,,,
107.83,-0.00205,-106.83,,,,,,,
108.18,-0.0021,-105.25,,,,,,,
108.22,-0.00211,-105.01,,,,,,,
108.85,-0.00215,-102.83,,,,,,,
109.22,-0.00219,-103.06,,,,,,,
109.31,-0.0022,-103.1,,,,,,,
109.88,-0.00225,-102.3,,,,,,,
110.22,-0.0023,-102.25,,,,,,,
110.27,-0.0023,-102.08,,,,,,,
110.76,-0.00235,-101.41,,,,,,,
111.22,-0.00239,-102.08,,,,,,,
111.43,-0.0024,-102.97,,,,,,,
111.78,-0.00245,-104.68,,,,,,,
112.22,-0.0025,-103.01,,,,,,,
112.26,-0.0025,-102.91,,,,,,,
112.84,-0.00255,-102.23,,,,,,,
113.22,-0.00259,-103.66,,,,,,,
113.42,-0.0026,-104.82,,,,,,,
113.92,-0.00265,-108.05,,,,,,,
114.22,-0.00268,-108.1,,,,,,,
114.5,-0.0027,-110.16,,,,,,,
114.91,-0.00275,-112.65,,,,,,,
115.22,-0.00279,-112.83,,,,,,,
115.42,-0.0028,-113.04,,,,,,,
115.84,-0.00285,-113.19,,,,,,,
116.22,-0.00289,-112.75,,,,,,,
116.5,-0.0029,-113.74,,,,,,,
116.89,-0.00295,-114.91,,,,,,,
117.22,-0.00299,-114.47,,,,,,,
117.34,-0.003,-114.14,,,,,,,
117.95,-0.00305,-113.76,,,,,,,
118.22,-0.00308,-114.81,,,,,,,
118.36,-0.0031,-115.06,,,,,,,
118.77,-0.00315,-113.81,,,,,,,
119.19,-0.0032,-111.8,,,,,,,
119.22,-0.00321,-111.52,,,,,,,
119.69,-0.00325,-106.76,,,,,,,
120.22,-0.00329,-105.0,,,,,,,
120.29,-0.0033,-105.22,,,,,,,
120.79,-0.00335,-105.33,,,,,,,
121.22,-0.00339,-105.59,,,,,,,
121.38,-0.0034,-106.14,,,,,,,
121.84,-0.00345,-107.06,,,,,,,
122.22,-0.0035,-106.82,,,,,,,
122.3,-0.0035,-106.59,,,,,,,
122.86,-0.00355,-107.76,,,,,,,
123.22,-0.0036,-107.73,,,,,,,
123.25,-0.0036,-107.61,,,,,,,
123.72,-0.00365,-105.26,,,,,,,
124.22,-0.0037,-104.24,,,,,,,
124.28,-0.0037,-104.1,,,,,,,
124.73,-0.00375,-103.26,,,,,,,
125.22,-0.00378,-103.59,,,,,,,
125.48,-0.0038,-106.84,,,,,,,
125.76,-0.00386,-107.74,,,,,,,
126.22,-0.0039,-105.23,,,,,,,
126.33,-0.00391,-105.16,,,,,,,
126.94,-0.00396,-107.29,,,,,,,
127.22,-0.00399,-108.33,,,,,,,
127.32,-0.00401,-108.36,,,,,,,
127.85,-0.00406,-107.02,,,,,,,
128.22,-0.00409,-107.76,,,,,,,
128.34,-0.00411,-107.89,,,,,,,
128.87,-0.00416,-107.64,,,,,,,
129.22,-0.00418,-108.64,,,,,,,
129.45,-0.00421,-110.11,,,,,,,
129.84,-0.00426,-110.89,,,,,,,
130.22,-0.00429,-110.98,,,,,,,
130.41,-0.00431,-110.95,,,,,,,
130.84,-0.00436,-112.46,,,,,,,
131.22,-0.0044,-111.34,,,,,,,
131.35,-0.00441,-110.92,,,,,,,
132.08,-0.00436,-95.43,,,,,,,
132.22,-0.00434,-92.68,,,,,,,
132.79,-0.00431,-81.49,,,,,,,
133.21,-0.00426,-71.59,,,,,,,
133.22,-0.00425,-71.37,,,,,,,
133.73,-0.00421,-61.43,,,,,,,
134.09,-0.00416,-57.33,,,,,,,
134.22,-0.00415,-56.42,,,,,,,
134.77,-0.00411,-50.52,,,,,,,
135.22,-0.00407,-42.39,,,,,,,
135.3,-0.00406,-40.7,,,,,,,
135.8,-0.00401,-33.88,,,,,,,
136.22,-0.00397,-26.94,,,,,,,
136.3,-0.00396,-25.23,,,,,,,
136.58,-0.0039,-22.63,,,,,,,
137.22,-0.00387,-16.52,,,,,,,
137.36,-0.00385,-13.89,,,,,,,
137.83,-0.0038,-5.7,,,,,,,
138.22,-0.00376,-2.26,,,,,,,
138.27,-0.00375,-1.96,,,,,,,
138.74,-0.0037,1.71,,,,,,,
139.17,-0.00365,2.16,,,,,,,
139.22,-0.00365,2.22,,,,,,,
139.74,-0.0036,6.28,,,,,,,
140.22,-0.00356,9.82,,,,,,,
140.25,-0.00355,10.0,,,,,,,
140.88,-0.0035,13.64,,,,,,,
141.22,-0.00348,15.26,,,,,,,
141.52,-0.00345,19.14,,,,,,,
142.17,-0.0034,22.46,,,,,,,
142.22,-0.00339,24.43,,,,,,,
142.39,-0.00335,28.45,,,,,,,
143.22,-0.0033,37.21,,,,,,,
143.22,-0.0033,37.31,,,,,,,
143.68,-0.00325,46.3,,,,,,,
143.99,-0.0032,51.38,,,,,,,
144.22,-0.00316,55.06,,,,,,,
144.27,-0.00315,55.57,,,,,,,
144.71,-0.0031,58.77,,,,,,,
145.21,-0.00305,60.36,,,,,,,
145.22,-0.00305,60.35,,,,,,,
145.74,-0.003,63.01,,,,,,,
146.22,-0.00296,67.57,,,,,,,
146.42,-0.00295,70.15,,,,,,,
146.75,-0.0029,74.28,,,,,,,
147.22,-0.00286,77.72,,,,,,,
147.33,-0.00285,78.65,,,,,,,
147.84,-0.0028,83.35,,,,,,,
148.22,-0.00277,88.53,,,,,,,
148.4,-0.00275,89.99,,,,,,,
148.83,-0.0027,93.33,,,,,,,
149.2,-0.00265,93.94,,,,,,,
149.22,-0.00265,93.86,,,,,,,
149.77,-0.0026,93.75,,,,,,,
150.21,-0.00255,94.52,,,,,,,
150.22,-0.00255,94.51,,,,,,,
150.77,-0.0025,96.01,,,,,,,
151.22,-0.00246,97.78,,,,,,,
151.25,-0.00245,97.88,,,,,,,
151.75,-0.0024,99.38,,,,,,,
152.22,-0.00237,102.22,,,,,,,
152.32,-0.00235,103.22,,,,,,,
152.71,-0.0023,105.18,,,,,,,
153.15,-0.00225,105.6,,,,,,,
153.22,-0.00224,105.4,,,,,,,
153.77,-0.0022,102.56,,,,,,,
154.17,-0.00215,104.47,,,,,,,
154.22,-0.00214,104.51,,,,,,,
154.65,-0.0021,103.51,,,,,,,
155.19,-0.00205,105.53,,,,,,,
155.22,-0.00205,105.7,,,,,,,
155.62,-0.002,105.87,,,,,,,
155.99,-0.00195,105.09,,,,,,,
156.22,-0.00193,102.98,,,,,,,
156.49,-0.0019,101.08,,,,,,,
156.97,-0.00185,99.01,,,,,,,
157.22,-0.00183,98.32,,,,,,,
157.52,-0.0018,98.28,,,,,,,
158.04,-0.00175,99.32,,,,,,,
158.22,-0.00172,98.95,,,,,,,
158.33,-0.0017,98.03,,,,,,,
159.08,-0.00165,96.3,,,,,,,
159.22,-0.00164,96.75,,,,,,,
159.49,-0.0016,97.02,,,,,,,
159.89,-0.00155,96.11,,,,,,,
160.22,-0.00152,94.15,,,,,,,
160.48,-0.0015,93.46,,,,,,,
161.05,-0.00145,94.9,,,,,,,
161.22,-0.00143,95.62,,,,,,,
161.54,-0.0014,97.25,,,,,,,
162.06,-0.00135,98.76,,,,,,,
162.22,-0.00133,99.51,,,,,,,
162.5,-0.0013,100.08,,,,,,,
162.97,-0.00125,100.01,,,,,,,
163.22,-0.00123,99.71,,,,,,,
163.52,-0.0012,99.77,,,,,,,
164.04,-0.00115,101.93,,,,,,,
164.22,-0.00114,102.81,,,,,,,
164.49,-0.0011,104.17,,,,,,,
164.95,-0.00105,103.35,,,,,,,
165.22,-0.00102,102.55,,,,,,,
165.35,-0.001,101.87,,,,,,,
166.04,-0.00095,101.44,,,,,,,
166.22,-0.00093,102.5,,,,,,,
166.44,-0.0009,102.7,,,,,,,
166.9,-0.00085,101.45,,,,,,,
167.22,-0.00082,100.52,,,,,,,
167.52,-0.0008,101.51,,,,,,,
168.01,-0.00075,105.75,,,,,,,
168.22,-0.00072,106.45,,,,,,,
168.37,-0.0007,105.88,,,,,,,
168.89,-0.00065,103.47,,,,,,,
169.22,-0.00062,102.91,,,,,,,
169.47,-0.0006,103.02,,,,,,,
169.92,-0.00055,103.3,,,,,,,
170.22,-0.00051,102.84,,,,,,,
170.33,-0.0005,102.52,,,,,,,
170.87,-0.00045,100.42,,,,,,,
171.22,-0.00042,99.77,,,,,,,
171.38,-0.0004,100.34,,,,,,,
171.9,-0.00035,100.45,,,,,,,
172.22,-0.00032,101.08,,,,,,,
172.38,-0.0003,101.39,,,,,,,
172.88,-0.00025,101.19,,,,,,,
173.22,-0.00021,100.27,,,,,,,
173.35,-0.0002,99.99,,,,,,,
173.88,-0.00015,99.03,,,,,,,
174.22,-0.00012,99.74,,,,,,,
174.38,-0.0001,100.36,,,,,,,
174.97,-5e-05,100.79,,,,,,,
175.22,-2e-05,102.17,,,,,,,
175.44,0.0,102.91,,,,,,,
175.94,5e-05,102.78,,,,,,,
176.22,8e-05,103.86,,,,,,,
176.4,0.0001,104.29,,,,,,,
176.83,0.00015,103.47,,,,,,,
177.22,0.00018,103.04,,,,,,,
177.39,0.0002,103.72,,,,,,,
177.87,0.00025,103.38,,,,,,,
178.22,0.00028,103.93,,,,,,,
178.37,0.0003,104.23,,,,,,,
178.9,0.00035,103.51,,,,,,,
179.22,0.00039,104.32,,,,,,,
179.38,0.0004,103.86,,,,,,,
179.83,0.00045,103.77,,,,,,,
180.22,0.00049,103.45,,,,,,,
180.29,0.0005,103.18,,,,,,,
180.82,0.00055,101.69,,,,,,,
181.22,0.00059,100.87,,,,,,,
181.4,0.0006,101.13,,,,,,,
181.81,0.00065,101.98,,,,,,,
182.22,0.00069,102.38,,,,,,,
182.4,0.0007,102.65,,,,,,,
182.79,0.00075,102.37,,,,,,,
183.22,0.00078,104.33,,,,,,,
183.36,0.0008,105.2,,,,,,,
183.84,0.00085,105.02,,,,,,,
184.22,0.00089,104.03,,,,,,,
184.41,0.0009,103.92,,,,,,,
184.88,0.00095,105.79,,,,,,,
185.22,0.00098,106.06,,,,,,,
185.48,0.001,108.07,,,,,,,
185.85,0.00105,110.09,,,,,,,
186.22,0.0011,107.2,,,,,,,
186.28,0.0011,107.11,,,,,,,
186.88,0.00115,106.31,,,,,,,
187.22,0.00119,106.21,,,,,,,
187.31,0.0012,105.98,,,,,,,
187.77,0.00125,104.17,,,,,,,
188.22,0.00129,103.09,,,,,,,
188.4,0.0013,103.59,,,,,,,
188.98,0.00135,108.36,,,,,,,
189.22,0.00138,110.15,,,,,,,
189.4,0.0014,110.8,,,,,,,
189.82,0.00145,110.3,,,,,,,
190.22,0.0015,107.67,,,,,,,
190.26,0.0015,107.42,,,,,,,
190.83,0.00155,105.75,,,,,,,
191.22,0.00158,106.58,,,,,,,
191.4,0.0016,107.35,,,,,,,
191.88,0.00165,108.02,,,,,,,
192.22,0.00168,108.45,,,,,,,
192.33,0.0017,108.7,,,,,,,
192.66,0.00175,107.4,,,,,,,
193.22,0.0018,103.57,,,,,,,
193.31,0.0018,103.29,,,,,,,
193.8,0.00185,102.36,,,,,,,
194.22,0.00189,102.17,,,,,,,
194.31,0.0019,102.46,,,,,,,
194.95,0.00195,103.81,,,,,,,
195.22,0.002,104.79,,,,,,,
195.22,0.002,104.79,,,,,,,
195.81,0.00205,101.51,,,,,,,
196.22,0.00209,102.26,,,,,,,
196.35,0.0021,102.82,,,,,,,
196.69,0.00215,101.75,,,,,,,
197.22,0.0022,100.6,,,,,,,
197.31,0.0022,100.27,,,,,,,
197.89,0.00225,104.45,,,,,,,
198.22,0.00228,106.42,,,,,,,
198.38,0.0023,107.39,,,,,,,
198.79,0.00235,106.85,,,,,,,
199.22,0.00239,105.52,,,,,,,
199.32,0.0024,105.51,,,,,,,
199.76,0.00245,104.44,,,,,,,
200.22,0.0025,103.48,,,,,,,
200.27,0.0025,103.4,,,,,,,
200.97,0.00255,104.18,,,,,,,
201.22,0.00258,107.02,,,,,,,
201.3,0.0026,107.51,,,,,,,
201.76,0.00265,105.7,,,,,,,
202.22,0.00269,105.14,,,,,,,
202.32,0.0027,105.12,,,,,,,
202.81,0.00275,104.67,,,,,,,
203.22,0.00279,104.51,,,,,,,
203.3,0.0028,104.58,,,,,,,
203.8,0.00285,104.0,,,,,,,
204.22,0.0029,102.89,,,,,,,
204.27,0.0029,102.79,,,,,,,
204.82,0.00295,101.57,,,,,,,
205.22,0.003,101.89,,,,,,,
205.3,0.003,102.62,,,,,,,
205.89,0.00305,102.01,,,,,,,
206.22,0.00308,104.24,,,,,,,
206.48,0.0031,106.51,,,,,,,
206.96,0.00315,110.96,,,,,,,
207.22,0.00317,112.56,,,,,,,
207.44,0.0032,114.43,,,,,,,
207.89,0.00325,116.09,,,,,,,
208.22,0.00328,115.8,,,,,,,
208.39,0.0033,115.93,,,,,,,
208.82,0.00335,114.48,,,,,,,
209.22,0.00338,113.18,,,,,,,
209.36,0.0034,113.55,,,,,,,
209.76,0.00345,112.25,,,,,,,
210.22,0.0035,108.48,,,,,,,
210.23,0.0035,108.39,,,,,,,
210.79,0.00355,105.7,,,,,,,
211.22,0.00359,105.34,,,,,,,
211.36,0.0036,105.4,,,,,,,
211.88,0.00365,105.81,,,,,,,
212.22,0.00369,107.22,,,,,,,
212.36,0.0037,107.48,,,,,,,
212.84,0.00375,107.89,,,,,,,
213.22,0.0038,107.52,,,,,,,
213.25,0.0038,107.46,,,,,,,
213.92,0.00385,105.5,,,,,,,
214.22,0.00389,106.67,,,,,,,
214.39,0.00391,107.02,,,,,,,
214.9,0.00396,108.25,,,,,,,
215.22,0.00399,109.02,,,,,,,
215.44,0.00401,109.69,,,,,,,
215.84,0.00406,109.2,,,,,,,
216.22,0.00408,108.9,,,,,,,
216.44,0.00411,109.99,,,,,,,
216.82,0.00416,111.18,,,,,,,
217.21,0.00421,108.52,,,,,,,
217.22,0.00421,108.43,,,,,,,
217.88,0.00426,104.47,,,,,,,
218.22,0.00429,106.34,,,,,,,
218.43,0.00431,107.25,,,,,,,
218.9,0.00436,107.85,,,,,,,
219.22,0.0044,108.04,,,,,,,
219.24,0.00441,107.95,,,,,,,
219.87,0.00446,109.51,,,,,,,
220.18,0.00451,107.98,,,,,,,
220.22,0.00451,107.63,,,,,,,
220.75,0.00456,103.57,,,,,,,
221.22,0.0046,102.19,,,,,,,
221.34,0.00461,102.16,,,,,,,
222.13,0.00456,85.91,,,,,,,
222.22,0.00454,84.11,,,,,,,
222.66,0.00451,78.46,,,,,,,
223.12,0.00446,71.27,,,,,,,
223.22,0.00444,69.99,,,,,,,
223.56,0.00441,66.88,,,,,,,
224.22,0.00436,59.9,,,,,,,
224.26,0.00436,58.81,,,,,,,
224.57,0.00431,53.56,,,,,,,
225.22,0.00427,46.0,,,,,,,
225.3,0.00426,44.75,,,,,,,
225.7,0.00421,39.81,,,,,,,
226.22,0.00417,33.49,,,,,,,
226.33,0.00416,31.71,,,,,,,
226.86,0.00411,25.61,,,,,,,
227.22,0.00407,21.33,,,,,,,
227.35,0.00406,19.55,,,,,,,
227.84,0.00401,13.66,,,,,,,
228.22,0.00397,8.96,,,,,,,
228.34,0.00396,7.47,,,,,,,
228.86,0.00391,2.04,,,,,,,
229.22,0.00389,3.84,,,,,,,
229.7,0.00386,1.67,,,,,,,
230.22,0.00383,-0.59,,,,,,,
230.54,0.00381,-3.9,,,,,,,
230.75,0.00375,-11.96,,,,,,,
230.87,0.0037,-18.9,,,,,,,
231.22,0.00366,-24.47,,,,,,,
231.3,0.00365,-25.35,,,,,,,
231.76,0.0036,-30.81,,,,,,,
232.22,0.00356,-36.27,,,,,,,
232.24,0.00355,-36.48,,,,,,,
232.73,0.0035,-39.49,,,,,,,
233.22,0.00346,-42.3,,,,,,,
233.25,0.00345,-42.45,,,,,,,
233.74,0.0034,-44.46,,,,,,,
234.22,0.00337,-48.48,,,,,,,
234.3,0.00335,-49.31,,,,,,,
234.77,0.0033,-51.2,,,,,,,
235.22,0.00327,-56.43,,,,,,,
235.31,0.00325,-57.34,,,,,,,
235.6,0.0032,-58.62,,,,,,,
236.22,0.00316,-60.18,,,,,,,
236.25,0.00315,-60.37,,,,,,,
236.72,0.0031,-62.55,,,,,,,
237.2,0.00305,-64.6,,,,,,,
237.22,0.00305,-64.73,,,,,,,
237.7,0.003,-65.67,,,,,,,
238.22,0.00297,-70.41,,,,,,,
238.33,0.00295,-71.73,,,,,,,
238.69,0.0029,-74.46,,,,,,,
239.22,0.00286,-75.49,,,,,,,
239.32,0.00285,-76.1,,,,,,,
239.78,0.0028,-79.74,,,,,,,
240.22,0.00277,-82.15,,,,,,,
240.42,0.00275,-85.45,,,,,,,
240.83,0.0027,-90.76,,,,,,,
241.19,0.00265,-93.94,,,,,,,
241.22,0.00265,-94.02,,,,,,,
241.71,0.0026,-93.33,,,,,,,
242.22,0.00256,-93.51,,,,,,,
242.25,0.00255,-93.62,,,,,,,
242.81,0.0025,-94.61,,,,,,,
243.22,0.00246,-96.05,,,,,,,
243.36,0.00245,-97.2,,,,,,,
243.93,0.0024,-103.51,,,,,,,
244.22,0.00236,-107.08,,,,,,,
244.3,0.00235,-107.76,,,,,,,
244.73,0.0023,-109.49,,,,,,,
245.11,0.00225,-108.5,,,,,,,
245.22,0.00224,-107.88,,,,,,,
245.67,0.0022,-106.25,,,,,,,
246.17,0.00215,-107.09,,,,,,,
246.22,0.00215,-107.12,,,,,,,
246.67,0.0021,-107.76,,,,,,,
247.08,0.00205,-107.0,,,,,,,
247.22,0.00204,-106.34,,,,,,,
247.47,0.002,-105.12,,,,,,,
248.03,0.00195,-101.27,,,,,,,
248.22,0.00193,-100.49,,,,,,,
248.62,0.0019,-100.82,,,,,,,
249.05,0.00185,-102.16,,,,,,,
249.22,0.00184,-101.86,,,,,,,
249.61,0.0018,-101.71,,,,,,,
250.03,0.00175,-102.2,,,,,,,
250.22,0.00173,-101.89,,,,,,,
250.47,0.0017,-101.39,,,,,,,
251.01,0.00165,-99.72,,,,,,,
251.22,0.00163,-99.83,,,,,,,
251.51,0.0016,-100.02,,,,,,,
252.03,0.00155,-99.99,,,,,,,
252.22,0.00153,-100.5,,,,,,,
252.49,0.0015,-100.58,,,,,,,
252.96,0.00145,-100.14,,,,,,,
253.22,0.00142,-100.0,,,,,,,
253.4,0.0014,-99.45,,,,,,,
253.98,0.00135,-99.99,,,,,,,
254.22,0.00133,-100.28,,,,,,,
254.45,0.0013,-100.31,,,,,,,
254.97,0.00125,-100.63,,,,,,,
255.22,0.00122,-100.86,,,,,,,
255.41,0.0012,-100.72,,,,,,,
255.96,0.00115,-100.75,,,,,,,
256.22,0.00113,-101.27,,,,,,,
256.52,0.0011,-102.48,,,,,,,
256.93,0.00105,-103.86,,,,,,,
257.22,0.00101,-102.68,,,,,,,
257.42,0.001,-101.84,,,,,,,
258.03,0.00095,-104.97,,,,,,,
258.22,0.00093,-106.07,,,,,,,
258.5,0.0009,-107.4,,,,,,,
258.97,0.00085,-107.19,,,,,,,
259.22,0.00082,-106.79,,,,,,,
259.39,0.0008,-106.07,,,,,,,
259.86,0.00075,-104.49,,,,,,,
260.22,0.00072,-103.47,,,,,,,
260.38,0.0007,-103.0,,,,,,,
260.91,0.00065,-102.95,,,,,,,
261.22,0.00062,-102.19,,,,,,,
261.46,0.0006,-102.69,,,,,,,
261.82,0.00055,-102.53,,,,,,,
262.22,0.00053,-103.41,,,,,,,
262.49,0.0005,-105.1,,,,,,,
262.95,0.00045,-107.03,,,,,,,
263.22,0.00041,-106.25,,,,,,,
263.3,0.0004,-105.68,,,,,,,
263.88,0.00035,-104.77,,,,,,,
264.22,0.00032,-104.17,,,,,,,
264.4,0.0003,-104.37,,,,,,,
264.75,0.00025,-103.46,,,,,,,
265.22,0.00021,-100.15,,,,,,,
265.3,0.0002,-99.79,,,,,,,
265.74,0.00015,-98.51,,,,,,,
266.22,0.00011,-97.27,,,,,,,
266.31,0.0001,-97.19,,,,,,,
266.83,5e-05,-97.57,,,,,,,
267.22,3e-05,-98.81,,,,,,,
267.39,0.0,-100.15,,,,,,,
267.85,-5e-05,-100.4,,,,,,,
268.22,-8e-05,-100.63,,,,,,,
268.42,-0.0001,-101.87,,,,,,,
268.75,-0.00015,-101.59,,,,,,,
269.22,-0.0002,-98.69,,,,,,,
269.27,-0.0002,-98.38,,,,,,,
269.73,-0.00025,-97.14,,,,,,,
270.22,-0.00028,-96.74,,,,,,,
270.36,-0.0003,-97.31,,,,,,,
270.85,-0.00035,-98.21,,,,,,,
271.22,-0.00038,-98.9,,,,,,,
271.52,-0.0004,-102.28,,,,,,,
271.98,-0.00045,-106.96,,,,,,,
272.22,-0.00048,-107.97,,,,,,,
272.45,-0.0005,-108.18,,,,,,,
272.85,-0.00055,-108.47,,,,,,,
273.22,-0.00058,-107.56,,,,,,,
273.4,-0.0006,-107.57,,,,,,,
273.88,-0.00065,-107.82,,,,,,,
274.22,-0.00069,-107.18,,,,,,,
274.33,-0.0007,-106.73,,,,,,,
274.88,-0.00075,-106.61,,,,,,,
275.22,-0.00079,-106.54,,,,,,,
275.34,-0.0008,-106.37,,,,,,,
275.89,-0.00085,-106.37,,,,,,,
276.22,-0.00089,-105.8,,,,,,,
276.4,-0.0009,-105.68,,,,,,,
276.86,-0.00095,-106.59,,,,,,,
277.22,-0.00097,-108.15,,,,,,,
277.48,-0.001,-110.56,,,,,,,
277.78,-0.00105,-111.34,,,,,,,
278.22,-0.0011,-109.03,,,,,,,
278.25,-0.0011,-109.0,,,,,,,
278.82,-0.00115,-106.17,,,,,,,
279.22,-0.0012,-103.77,,,,,,,
279.35,-0.0012,-103.54,,,,,,,
279.8,-0.00125,-105.18,,,,,,,
280.22,-0.00129,-104.87,,,,,,,
280.3,-0.0013,-104.81,,,,,,,
280.78,-0.00135,-103.4,,,,,,,
281.22,-0.0014,-102.14,,,,,,,
281.25,-0.0014,-102.06,,,,,,,
281.79,-0.00145,-100.03,,,,,,,
282.22,-0.00149,-100.54,,,,,,,
282.37,-0.0015,-100.74,,,,,,,
282.85,-0.00155,-102.43,,,,,,,
283.22,-0.00159,-103.11,,,,,,,
283.31,-0.0016,-103.23,,,,,,,
283.83,-0.00165,-103.28,,,,,,,
284.22,-0.00169,-103.71,,,,,,,
284.39,-0.0017,-103.87,,,,,,,
284.82,-0.00175,-103.84,,,,,,,
285.22,-0.00179,-103.65,,,,,,,
285.29,-0.0018,-103.56,,,,,,,
285.89,-0.00185,-103.18,,,,,,,
286.22,-0.00189,-103.53,,,,,,,
286.38,-0.0019,-103.56,,,,,,,
286.84,-0.00195,-105.18,,,,,,,
287.22,-0.00197,-106.27,,,,,,,
287.41,-0.002,-108.01,,,,,,,
287.92,-0.00205,-109.65,,,,,,,
288.22,-0.0021,-109.74,,,,,,,
288.25,-0.0021,-109.61,,,,,,,
288.93,-0.00215,-107.7,,,,,,,
289.22,-0.00218,-109.15,,,,,,,
289.35,-0.0022,-109.7,,,,,,,
289.87,-0.00225,-107.93,,,,,,,
290.22,-0.00229,-108.68,,,,,,,
290.32,-0.0023,-108.67,,,,,,,
291.0,-0.00235,-106.81,,,,,,,
291.22,-0.00237,-109.25,,,,,,,
291.46,-0.0024,-111.68,,,,,,,
291.93,-0.00245,-114.09,,,,,,,
292.22,-0.00249,-113.78,,,,,,,
292.3,-0.0025,-113.36,,,,,,,
292.8,-0.00255,-110.23,,,,,,,
293.22,-0.00259,-110.01,,,,,,,
293.35,-0.0026,-109.78,,,,,,,
293.8,-0.00265,-110.63,,,,,,,
294.22,-0.00268,-110.47,,,,,,,
294.39,-0.0027,-111.04,,,,,,,
294.9,-0.00275,-112.43,,,,,,,
295.22,-0.00278,-112.52,,,,,,,
295.35,-0.0028,-112.69,,,,,,,
295.69,-0.00285,-111.43,,,,,,,
296.22,-0.0029,-107.66,,,,,,,
296.25,-0.0029,-107.49,,,,,,,
296.69,-0.00295,-105.5,,,,,,,
297.22,-0.00298,-105.91,,,,,,,
297.49,-0.003,-108.82,,,,,,,
297.86,-0.00305,-111.02,,,,,,,
298.22,-0.00309,-110.69,,,,,,,
298.32,-0.0031,-110.6,,,,,,,
298.8,-0.00315,-108.79,,,,,,,
299.22,-0.0032,-106.15,,,,,,,
299.28,-0.0032,-106.15,,,,,,,
299.81,-0.00325,-105.51,,,,,,,
300.22,-0.00329,-104.68,,,,,,,
300.35,-0.0033,-104.95,,,,,,,
300.89,-0.00335,-105.91,,,,,,,
301.22,-0.00339,-106.49,,,,,,,
301.37,-0.0034,-106.91,,,,,,,
301.85,-0.00345,-106.81,,,,,,,
302.22,-0.00348,-108.02,,,,,,,
302.36,-0.0035,-108.66,,,,,,,
302.88,-0.00355,-109.9,,,,,,,
303.22,-0.00359,-109.59,,,,,,,
303.36,-0.0036,-109.5,,,,,,,
303.81,-0.00365,-109.73,,,,,,,
304.22,-0.0037,-108.2,,,,,,,
304.32,-0.0037,-107.96,,,,,,,
304.81,-0.00375,-108.05,,,,,,,
305.22,-0.00379,-107.14,,,,,,,
305.44,-0.0038,-107.7,,,,,,,
305.88,-0.00386,-108.97,,,,,,,
306.22,-0.00389,-109.26,,,,,,,
306.49,-0.00391,-110.62,,,,,,,
306.87,-0.00396,-112.66,,,,,,,
307.22,-0.00398,-113.12,,,,,,,
307.48,-0.00401,-114.02,,,,,,,
307.95,-0.00406,-116.13,,,,,,,
308.22,-0.00409,-116.61,,,,,,,
308.39,-0.00411,-116.56,,,,,,,
308.9,-0.00416,-115.56,,,,,,,
309.22,-0.00419,-115.61,,,,,,,
309.32,-0.00421,-115.28,,,,,,,
309.76,-0.00426,-111.99,,,,,,,
310.22,-0.0043,-109.32,,,,,,,
310.28,-0.00431,-109.09,,,,,,,
310.77,-0.00436,-108.36,,,,,,,
311.22,-0.00439,-109.06,,,,,,,
311.42,-0.00441,-109.64,,,,,,,
311.9,-0.00446,-111.93,,,,,,,
312.22,-0.00449,-111.12,,,,,,,
312.38,-0.00451,-110.83,,,,,,,
312.79,-0.00456,-111.56,,,,,,,
313.22,-0.0046,-108.57,,,,,,,
313.36,-0.00461,-107.66,,,,,,,
313.99,-0.00456,-95.67,,,,,,,
314.22,-0.00454,-92.76,,,,,,,
314.63,-0.00451,-87.28,,,,,,,
315.04,-0.00446,-80.5,,,,,,,
315.22,-0.00444,-77.92,,,,,,,
315.66,-0.00441,-72.87,,,,,,,
316.14,-0.00436,-66.35,,,,,,,
316.22,-0.00435,-65.49,,,,,,,
316.77,-0.00431,-57.19,,,,,,,
317.17,-0.00426,-51.34,,,,,,,
317.22,-0.00425,-50.78,,,,,,,
317.67,-0.00421,-46.06,,,,,,,
318.19,-0.00416,-38.46,,,,,,,
318.22,-0.00415,-38.05,,,,,,,
318.72,-0.00411,-34.54,,,,,,,
319.22,-0.00406,-29.15,,,,,,,
319.25,-0.00406,-28.83,,,,,,,
319.75,-0.00401,-22.56,,,,,,,
320.22,-0.00396,-18.27,,,,,,,
320.28,-0.00396,-17.8,,,,,,,
320.87,-0.00391,-8.77,,,,,,,
321.22,-0.00387,-3.63,,,,,,,
321.38,-0.00386,-1.0,,,,,,,
321.88,-0.00381,5.29,,,,,,,
322.22,-0.00378,9.94,,,,,,,
322.43,-0.00376,12.54,,,,,,,
322.94,-0.0037,15.28,,,,,,,
323.22,-0.00368,16.38,,,,,,,
323.73,-0.00365,19.06,,,,,,,
324.09,-0.0036,26.3,,,,,,,
324.22,-0.00357,29.09,,,,,,,
324.48,-0.00355,29.69,,,,,,,
324.98,-0.0035,30.99,,,,,,,
325.22,-0.00349,32.92,,,,,,,
325.62,-0.00345,37.68,,,,,,,
326.04,-0.0034,42.55,,,,,,,
326.22,-0.00337,46.44,,,,,,,
326.33,-0.00335,48.21,,,,,,,
326.72,-0.0033,50.33,,,,,,,
327.22,-0.00327,54.41,,,,,,,
327.31,-0.00325,55.45,,,,,,,
327.89,-0.0032,58.83,,,,,,,
328.22,-0.00317,63.29,,,,,,,
328.36,-0.00315,64.94,,,,,,,
328.93,-0.0031,73.4,,,,,,,
329.22,-0.00307,76.2,,,,,,,
329.37,-0.00305,77.73,,,,,,,
329.82,-0.003,79.91,,,,,,,
330.22,-0.00296,79.87,,,,,,,
330.29,-0.00295,80.03,,,,,,,
330.68,-0.0029,82.69,,,,,,,
331.22,-0.00286,82.53,,,,,,,
331.27,-0.00285,82.7,,,,,,,
331.78,-0.0028,83.63,,,,,,,
332.22,-0.00275,85.22,,,,,,,
332.73,-0.0027,85.47,,,,,,,
333.22,-0.00267,87.07,,,,,,,
333.38,-0.00265,88.94,,,,,,,
333.76,-0.0026,92.81,,,,,,,
334.2,-0.00255,93.53,,,,,,,
334.22,-0.00255,93.5,,,,,,,
334.7,-0.0025,92.6,,,,,,,
335.22,-0.00246,94.65,,,,,,,
335.28,-0.00245,94.98,,,,,,,
335.76,-0.0024,97.8,,,,,,,
336.22,-0.00235,98.29,,,,,,,
336.23,-0.00235,98.25,,,,,,,
336.72,-0.0023,99.84,,,,,,,
337.17,-0.00225,100.64,,,,,,,
337.22,-0.00225,100.61,,,,,,,
337.71,-0.0022,100.82,,,,,,,
338.21,-0.00215,102.28,,,,,,,
338.22,-0.00215,102.34,,,,,,,
338.69,-0.0021,103.71,,,,,,,
339.21,-0.00205,104.06,,,,,,,
339.22,-0.00205,104.18,,,,,,,
339.77,-0.002,107.21,,,,,,,
340.11,-0.00195,108.37,,,,,,,
340.22,-0.00194,107.99,,,,,,,
340.65,-0.0019,107.49,,,,,,,
341.2,-0.00185,108.11,,,,,,,
341.22,-0.00185,108.25,,,,,,,
341.6,-0.0018,108.87,,,,,,,
341.99,-0.00175,107.61,,,,,,,
342.22,-0.00174,106.22,,,,,,,
342.48,-0.0017,105.5,,,,,,,
343.04,-0.00165,104.67,,,,,,,
343.22,-0.00163,104.47,,,,,,,
343.48,-0.0016,103.79,,,,,,,
343.81,-0.00155,101.93,,,,,,,
344.22,-0.00153,98.42,,,,,,,
344.58,-0.0015,98.64,,,,,,,
344.95,-0.00145,99.56,,,,,,,
345.22,-0.00142,98.74,,,,,,,
345.48,-0.0014,98.12,,,,,,,
345.98,-0.00135,98.82,,,,,,,
346.22,-0.00133,99.21,,,,,,,
346.57,-0.0013,100.89,,,,,,,
347.06,-0.00125,103.67,,,,,,,
347.22,-0.00124,104.43,,,,,,,
347.57,-0.0012,106.27,,,,,,,
347.97,-0.00115,106.49,,,,,,,
348.22,-0.00112,106.17,,,,,,,
348.46,-0.0011,105.42,,,,,,,
348.93,-0.00105,106.39,,,,,,,
349.22,-0.00102,105.42,,,,,,,
349.4,-0.001,104.66,,,,,,,
350.05,-0.00095,106.71,,,,,,,
350.22,-0.00092,107.3,,,,,,,
350.37,-0.0009,106.42,,,,,,,
350.88,-0.00085,103.52,,,,,,,
351.22,-0.00081,101.85,,,,,,,
351.32,-0.0008,101.23,,,,,,,
351.85,-0.00075,99.37,,,,,,,
352.22,-0.00071,97.73,,,,,,,
352.29,-0.0007,97.38,,,,,,,
352.99,-0.00065,99.54,,,,,,,
353.22,-0.00063,100.83,,,,,,,
353.46,-0.0006,101.6,,,,,,,
353.86,-0.00055,101.98,,,,,,,
354.22,-0.00052,100.85,,,,,,,
354.48,-0.0005,100.95,,,,,,,
354.92,-0.00045,103.55,,,,,,,
355.22,-0.00042,104.55,,,,,,,
355.51,-0.0004,105.23,,,,,,,
355.93,-0.00035,107.21,,,,,,,
356.22,-0.00032,106.33,,,,,,,
356.39,-0.0003,105.94,,,,,,,
356.85,-0.00025,108.13,,,,,,,
357.22,-0.00021,106.54,,,,,,,
357.31,-0.0002,106.01,,,,,,,
357.91,-0.00015,104.1,,,,,,,
358.22,-0.00012,104.42,,,,,,,
358.37,-0.0001,104.61,,,,,,,
358.95,-5e-05,105.62,,,,,,,
359.22,-1e-05,105.42,,,,,,,
747.56,0.0,108.81,,,,,,,
747.92,5e-05,110.36,,,,,,,
748.22,8e-05,109.44,,,,,,,
748.37,0.0001,109.38,,,,,,,
748.89,0.00015,107.97,,,,,,,
749.22,0.00019,106.78,,,,,,,
749.35,0.0002,106.19,,,,,,,
749.84,0.00025,106.41,,,,,,,
750.22,0.00029,104.19,,,,,,,
750.33,0.0003,103.83,,,,,,,
751.0,0.00035,107.73,,,,,,,
751.22,0.00037,109.02,,,,,,,
751.44,0.0004,110.07,,,,,,,
751.86,0.00045,109.71,,,,,,,
752.22,0.00048,108.32,,,,,,,
752.37,0.0005,108.03,,,,,,,
752.8,0.00055,107.7,,,,,,,
753.22,0.00059,104.64,,,,,,,
753.36,0.0006,104.16,,,,,,,
753.67,0.00065,102.95,,,,,,,
754.22,0.00069,97.69,,,,,,,
754.33,0.0007,97.53,,,,,,,
754.89,0.00075,98.31,,,,,,,
755.22,0.00079,99.17,,,,,,,
755.36,0.0008,99.54,,,,,,,
755.93,0.00085,101.3,,,,,,,
756.22,0.00088,103.15,,,,,,,
756.46,0.0009,103.68,,,,,,,
756.97,0.00095,106.82,,,,,,,
757.22,0.00099,107.26,,,,,,,
757.28,0.001,107.02,,,,,,,
757.92,0.00105,103.83,,,,,,,
758.22,0.00108,105.06,,,,,,,
758.47,0.0011,106.17,,,,,,,
758.95,0.00115,108.56,,,,,,,
759.22,0.00118,109.04,,,,,,,
759.42,0.0012,109.52,,,,,,,
759.87,0.00125,109.01,,,,,,,
760.22,0.00129,108.44,,,,,,,
760.32,0.0013,108.02,,,,,,,
761.0,0.00135,107.34,,,,,,,
761.22,0.00138,108.55,,,,,,,
761.34,0.0014,108.51,,,,,,,
761.84,0.00145,105.57,,,,,,,
762.22,0.00148,105.81,,,,,,,
762.42,0.0015,107.16,,,,,,,
763.0,0.00155,108.73,,,,,,,
763.22,0.00158,110.09,,,,,,,
763.33,0.0016,110.04,,,,,,,
763.82,0.00165,107.67,,,,,,,
764.22,0.00169,106.35,,,,,,,
764.35,0.0017,105.88,,,,,,,
764.92,0.00175,106.77,,,,,,,
765.22,0.0018,105.81,,,,,,,
765.25,0.0018,105.57,,,,,,,
765.81,0.00185,102.79,,,,,,,
766.22,0.00189,102.31,,,,,,,
766.39,0.0019,102.54,,,,,,,
766.9,0.00195,104.84,,,,,,,
767.22,0.00198,105.59,,,,,,,
767.51,0.002,107.17,,,,,,,
767.9,0.00205,109.35,,,,,,,
768.15,0.0021,109.49,,,,,,,
768.22,0.00211,108.47,,,,,,,
768.78,0.00215,103.02,,,,,,,
769.22,0.0022,102.3,,,,,,,
769.22,0.0022,102.31,,,,,,,
769.85,0.00225,100.26,,,,,,,
770.22,0.00229,100.45,,,,,,,
770.4,0.0023,100.67,,,,,,,
770.81,0.00235,101.12,,,,,,,
771.22,0.00239,100.88,,,,,,,
771.39,0.0024,101.46,,,,,,,
771.84,0.00245,102.54,,,,,,,
772.22,0.00249,102.21,,,,,,,
772.39,0.0025,102.33,,,,,,,
772.88,0.00255,102.71,,,,,,,
773.22,0.00259,103.33,,,,,,,
773.41,0.0026,103.51,,,,,,,
773.91,0.00265,106.08,,,,,,,
774.22,0.00268,106.46,,,,,,,
774.4,0.0027,107.47,,,,,,,
774.96,0.00275,108.04,,,,,,,
775.22,0.00278,109.45,,,,,,,
775.35,0.0028,109.45,,,,,,,
775.87,0.00285,108.56,,,,,,,
776.22,0.00289,107.79,,,,,,,
776.43,0.0029,108.07,,,,,,,
776.82,0.00295,107.74,,,,,,,
777.22,0.00299,106.2,,,,,,,
777.38,0.003,106.33,,,,,,,
777.93,0.00305,106.39,,,,,,,
778.22,0.00309,106.55,,,,,,,
778.33,0.0031,106.11,,,,,,,
778.91,0.00315,106.1,,,,,,,
779.22,0.00319,106.3,,,,,,,
779.41,0.0032,106.54,,,,,,,
779.98,0.00325,107.71,,,,,,,
780.22,0.00328,108.88,,,,,,,
780.4,0.0033,109.16,,,,,,,
780.99,0.00335,108.42,,,,,,,
781.22,0.00338,110.11,,,,,,,
781.35,0.0034,110.32,,,,,,,
781.98,0.00345,108.88,,,,,,,
782.22,0.00347,110.03,,,,,,,
782.46,0.0035,111.92,,,,,,,
782.92,0.00355,112.65,,,,,,,
783.22,0.00359,111.93,,,,,,,
783.3,0.0036,111.51,,,,,,,
783.76,0.00365,108.16,,,,,,,
784.22,0.00369,106.12,,,,,,,
784.38,0.0037,106.22,,,,,,,
784.93,0.00375,107.33,,,,,,,
785.22,0.00378,107.51,,,,,,,
785.44,0.0038,108.14,,,,,,,
785.95,0.00385,109.11,,,,,,,
786.22,0.00388,109.83,,,,,,,
786.45,0.00391,110.28,,,,,,,
786.96,0.00396,111.06,,,,,,,
787.22,0.00398,111.92,,,,,,,
787.42,0.00401,112.08,,,,,,,
787.91,0.00406,111.29,,,,,,,
788.22,0.00409,111.06,,,,,,,
788.34,0.00411,110.71,,,,,,,
788.85,0.00416,108.35,,,,,,,
789.22,0.00418,108.06,,,,,,,
789.46,0.00421,109.69,,,,,,,
789.81,0.00426,110.39,,,,,,,
790.22,0.0043,108.12,,,,,,,
790.27,0.00431,107.76,,,,,,,
790.86,0.00436,106.11,,,,,,,
791.22,0.00439,106.03,,,,,,,
791.43,0.00441,106.13,,,,,,,
791.94,0.00446,107.91,,,,,,,
792.22,0.00448,109.19,,,,,,,
792.39,0.00451,109.83,,,,,,,
792.99,0.00456,109.4,,,,,,,
793.22,0.00458,110.94,,,,,,,
793.39,0.00461,111.54,,,,,,,
793.8,0.00466,109.14,,,,,,,
794.22,0.00469,108.01,,,,,,,
794.38,0.00471,107.97,,,,,,,
794.78,0.00476,107.06,,,,,,,
795.22,0.00481,103.41,,,,,,,
795.22,0.00481,103.37,,,,,,,
795.89,0.00486,101.93,,,,,,,
796.22,0.0049,101.73,,,,,,,
796.36,0.00491,101.41,,,,,,,
796.91,0.00496,102.35,,,,,,,
797.22,0.00499,102.68,,,,,,,
797.4,0.00501,102.61,,,,,,,
798.12,0.00496,88.86,,,,,,,
798.22,0.00495,87.08,,,,,,,
798.61,0.00491,81.79,,,,,,,
799.2,0.00486,75.22,,,,,,,
799.22,0.00485,74.92,,,,,,,
799.6,0.00481,69.76,,,,,,,
800.2,0.00476,63.93,,,,,,,
800.22,0.00475,63.63,,,,,,,
800.68,0.00471,58.14,,,,,,,
801.09,0.00466,54.19,,,,,,,
801.22,0.00464,53.75,,,,,,,
801.79,0.00461,47.15,,,,,,,
802.16,0.00456,42.04,,,,,,,
802.22,0.00455,41.65,,,,,,,
802.78,0.00451,36.64,,,,,,,
803.2,0.00446,31.76,,,,,,,
803.22,0.00445,31.58,,,,,,,
803.8,0.00441,25.45,,,,,,,
804.22,0.00436,21.2,,,,,,,
804.29,0.00436,20.49,,,,,,,
804.8,0.00431,15.51,,,,,,,
805.22,0.00427,11.42,,,,,,,
805.42,0.00426,8.7,,,,,,,
805.93,0.00421,2.06,,,,,,,
806.22,0.00422,1.91,,,,,,,
807.08,0.00416,-6.24,,,,,,,
807.22,0.00413,-8.29,,,,,,,
807.35,0.00411,-11.39,,,,,,,
807.47,0.00405,-17.88,,,,,,,
807.79,0.004,-23.28,,,,,,,
808.22,0.00397,-27.03,,,,,,,
808.37,0.00395,-28.78,,,,,,,
808.93,0.0039,-36.56,,,,,,,
809.22,0.00387,-41.06,,,,,,,
809.43,0.00385,-44.34,,,,,,,
809.77,0.0038,-48.31,,,,,,,
810.22,0.00377,-51.16,,,,,,,
810.33,0.00375,-52.15,,,,,,,
810.78,0.0037,-53.2,,,,,,,
811.22,0.00366,-55.15,,,,,,,
811.31,0.00365,-55.5,,,,,,,
811.84,0.0036,-59.62,,,,,,,
812.22,0.00357,-62.33,,,,,,,
812.38,0.00355,-63.5,,,,,,,
813.09,0.0035,-69.98,,,,,,,
813.22,0.00349,-72.43,,,,,,,
813.44,0.00345,-77.36,,,,,,,
813.9,0.0034,-81.36,,,,,,,
814.22,0.00337,-84.03,,,,,,,
814.36,0.00335,-84.93,,,,,,,
814.88,0.0033,-86.77,,,,,,,
815.22,0.00326,-86.99,,,,,,,
815.29,0.00325,-87.08,,,,,,,
815.79,0.0032,-86.81,,,,,,,
816.22,0.00316,-87.7,,,,,,,
816.29,0.00315,-87.95,,,,,,,
816.64,0.0031,-87.79,,,,,,,
817.22,0.00306,-85.56,,,,,,,
817.44,0.00305,-87.24,,,,,,,
817.79,0.003,-91.46,,,,,,,
818.16,0.00295,-92.82,,,,,,,
818.22,0.00295,-92.79,,,,,,,
818.78,0.0029,-91.33,,,,,,,
819.22,0.00286,-93.93,,,,,,,
819.25,0.00285,-94.1,,,,,,,
819.79,0.0028,-95.35,,,,,,,
820.22,0.00276,-97.43,,,,,,,
820.31,0.00275,-97.84,,,,,,,
820.79,0.0027,-100.27,,,,,,,
821.2,0.00265,-101.41,,,,,,,
821.22,0.00265,-101.37,,,,,,,
821.71,0.0026,-100.26,,,,,,,
822.14,0.00255,-100.05,,,,,,,
822.22,0.00254,-99.87,,,,,,,
822.7,0.0025,-99.32,,,,,,,
823.21,0.00245,-100.06,,,,,,,
823.22,0.00245,-100.16,,,,,,,
823.63,0.0024,-100.76,,,,,,,
824.21,0.00235,-101.25,,,,,,,
824.22,0.00235,-101.33,,,,,,,
824.66,0.0023,-101.89,,,,,,,
825.08,0.00225,-100.71,,,,,,,
825.22,0.00224,-100.41,,,,,,,
825.64,0.0022,-101.83,,,,,,,
826.17,0.00215,-103.15,,,,,,,
826.22,0.00214,-103.36,,,,,,,
826.62,0.0021,-102.98,,,,,,,
826.94,0.00205,-101.67,,,,,,,
827.22,0.00202,-99.3,,,,,,,
827.65,0.002,-98.54,,,,,,,
828.04,0.00195,-99.25,,,,,,,
828.22,0.00193,-99.08,,,,,,,
828.54,0.0019,-98.88,,,,,,,
828.94,0.00185,-98.65,,,,,,,
829.22,0.00184,-97.63,,,,,,,
829.59,0.0018,-101.46,,,,,,,
829.92,0.00175,-101.65,,,,,,,
830.22,0.00173,-100.23,,,,,,,
830.58,0.0017,-101.02,,,,,,,
831.16,0.00165,-102.73,,,,,,,
831.22,0.00164,-103.16,,,,,,,
831.6,0.0016,-104.76,,,,,,,
831.98,0.00155,-105.81,,,,,,,
832.22,0.00153,-104.65,,,,,,,
832.48,0.0015,-104.15,,,,,,,
833.12,0.00145,-105.58,,,,,,,
833.22,0.00144,-106.21,,,,,,,
833.51,0.0014,-107.08,,,,,,,
834.11,0.00135,-107.41,,,,,,,
834.22,0.00134,-107.9,,,,,,,
834.41,0.0013,-107.81,,,,,,,
834.86,0.00125,-104.19,,,,,,,
835.22,0.00122,-102.51,,,,,,,
835.52,0.0012,-101.96,,,,,,,
836.06,0.00115,-103.96,,,,,,,
836.22,0.00113,-104.78,,,,,,,
836.48,0.0011,-105.5,,,,,,,
836.88,0.00105,-104.19,,,,,,,
837.22,0.00101,-102.22,,,,,,,
837.29,0.001,-101.81,,,,,,,
838.06,0.00095,-98.66,,,,,,,
838.22,0.00093,-100.04,,,,,,,
838.5,0.0009,-101.67,,,,,,,
838.99,0.00085,-102.78,,,,,,,
839.22,0.00083,-103.56,,,,,,,
839.45,0.0008,-104.19,,,,,,,
840.01,0.00075,-104.3,,,,,,,
840.22,0.00072,-104.5,,,,,,,
840.43,0.0007,-104.5,,,,,,,
840.96,0.00065,-104.71,,,,,,,
841.22,0.00062,-104.81,,,,,,,
841.44,0.0006,-104.5,,,,,,,
841.97,0.00055,-104.61,,,,,,,
842.22,0.00053,-104.84,,,,,,,
842.5,0.0005,-105.93,,,,,,,
842.88,0.00045,-105.38,,,,,,,
843.22,0.00043,-103.6,,,,,,,
843.43,0.0004,-104.36,,,,,,,
843.87,0.00035,-103.37,,,,,,,
844.22,0.00032,-102.25,,,,,,,
844.49,0.0003,-102.29,,,,,,,
844.99,0.00025,-105.58,,,,,,,
845.22,0.00021,-105.35,,,,,,,
845.44,0.0002,-103.67,,,,,,,
845.93,0.00015,-104.3,,,,,,,
846.22,0.00011,-103.8,,,,,,,
846.38,0.0001,-103.34,,,,,,,
847.03,5e-05,-104.82,,,,,,,
847.22,2e-05,-106.08,,,,,,,
847.5,0.0,-106.74,,,,,,,
847.89,-5e-05,-107.02,,,,,,,
848.22,-8e-05,-106.75,,,,,,,
848.36,-0.0001,-106.45,,,,,,,
848.7,-0.00015,-104.2,,,,,,,
849.22,-0.00017,-102.53,,,,,,,
849.51,-0.0002,-104.87,,,,,,,
850.09,-0.00025,-112.82,,,,,,,
850.22,-0.00027,-114.23,,,,,,,
850.4,-0.0003,-115.44,,,,,,,
850.85,-0.00035,-114.49,,,,,,,
851.22,-0.0004,-112.03,,,,,,,
851.28,-0.0004,-111.35,,,,,,,
851.62,-0.00045,-107.66,,,,,,,
852.22,-0.00049,-102.86,,,,,,,
852.4,-0.0005,-103.01,,,,,,,
853.05,-0.00055,-106.11,,,,,,,
853.22,-0.00058,-107.93,,,,,,,
853.34,-0.0006,-108.32,,,,,,,
853.82,-0.00065,-106.6,,,,,,,
854.22,-0.0007,-104.49,,,,,,,
854.25,-0.0007,-104.32,,,,,,,
854.75,-0.00075,-102.56,,,,,,,
855.22,-0.00078,-100.28,,,,,,,
855.36,-0.0008,-100.68,,,,,,,
855.67,-0.00085,-100.0,,,,,,,
856.22,-0.0009,-96.87,,,,,,,
856.26,-0.0009,-96.76,,,,,,,
856.72,-0.00095,-96.34,,,,,,,
857.22,-0.00099,-96.17,,,,,,,
857.36,-0.001,-96.66,,,,,,,
857.96,-0.00105,-100.25,,,,,,,
858.22,-0.00109,-101.4,,,,,,,
858.29,-0.0011,-101.29,,,,,,,
858.74,-0.00115,-99.63,,,,,,,
859.22,-0.00117,-100.76,,,,,,,
859.53,-0.0012,-104.94,,,,,,,
860.05,-0.00125,-108.55,,,,,,,
860.22,-0.00128,-109.9,,,,,,,
860.42,-0.0013,-109.88,,,,,,,
861.0,-0.00135,-111.64,,,,,,,
861.22,-0.00138,-112.51,,,,,,,
861.47,-0.0014,-112.9,,,,,,,
861.93,-0.00145,-112.34,,,,,,,
862.22,-0.00148,-112.12,,,,,,,
862.42,-0.0015,-112.12,,,,,,,
862.88,-0.00155,-111.35,,,,,,,
863.22,-0.00159,-110.26,,,,,,,
863.31,-0.0016,-109.84,,,,,,,
863.85,-0.00165,-107.67,,,,,,,
864.22,-0.00169,-107.07,,,,,,,
864.34,-0.0017,-106.84,,,,,,,
864.91,-0.00175,-108.27,,,,,,,
865.22,-0.00177,-109.61,,,,,,,
865.48,-0.0018,-111.47,,,,,,,
865.98,-0.00185,-112.75,,,,,,,
866.22,-0.00187,-112.52,,,,,,,
866.4,-0.0019,-113.57,,,,,,,
866.89,-0.00195,-112.28,,,,,,,
867.22,-0.00199,-111.22,,,,,,,
867.35,-0.002,-110.75,,,,,,,
867.9,-0.00205,-110.06,,,,,,,
868.22,-0.00208,-110.1,,,,,,,
868.36,-0.0021,-109.97,,,,,,,
868.88,-0.00215,-108.99,,,,,,,
869.22,-0.00219,-108.08,,,,,,,
869.34,-0.0022,-107.74,,,,,,,
869.73,-0.00225,-105.83,,,,,,,
870.22,-0.00229,-103.13,,,,,,,
870.46,-0.0023,-103.4,,,,,,,
870.83,-0.00235,-105.17,,,,,,,
871.22,-0.00238,-104.42,,,,,,,
871.44,-0.0024,-105.85,,,,,,,
871.87,-0.00245,-106.96,,,,,,,
872.22,-0.00248,-107.29,,,,,,,
872.48,-0.0025,-108.68,,,,,,,
872.84,-0.00255,-109.84,,,,,,,
873.22,-0.00258,-109.25,,,,,,,
873.47,-0.0026,-109.79,,,,,,,
873.9,-0.00265,-111.06,,,,,,,
874.22,-0.00268,-110.79,,,,,,,
874.38,-0.0027,-110.72,,,,,,,
874.87,-0.00275,-110.13,,,,,,,
875.22,-0.00279,-109.73,,,,,,,
875.41,-0.0028,-109.74,,,,,,,
875.92,-0.00285,-110.72,,,,,,,
876.22,-0.00289,-111.07,,,,,,,
876.41,-0.0029,-111.05,,,,,,,
876.85,-0.00295,-110.54,,,,,,,
877.22,-0.00299,-110.0,,,,,,,
877.36,-0.003,-109.81,,,,,,,
877.88,-0.00305,-108.81,,,,,,,
878.22,-0.00309,-108.76,,,,,,,
878.39,-0.0031,-108.7,,,,,,,
878.92,-0.00315,-109.82,,,,,,,
879.22,-0.00318,-110.61,,,,,,,
879.35,-0.0032,-110.82,,,,,,,
879.86,-0.00325,-110.05,,,,,,,
880.22,-0.00329,-109.23,,,,,,,
880.36,-0.0033,-109.04,,,,,,,
880.92,-0.00335,-109.11,,,,,,,
881.22,-0.00339,-109.76,,,,,,,
881.36,-0.0034,-109.64,,,,,,,
881.84,-0.00345,-109.75,,,,,,,
882.22,-0.00349,-108.88,,,,,,,
882.34,-0.0035,-108.6,,,,,,,
882.75,-0.00355,-107.12,,,,,,,
883.22,-0.00359,-105.09,,,,,,,
883.35,-0.0036,-105.41,,,,,,,
883.96,-0.00365,-108.1,,,,,,,
884.22,-0.00369,-109.35,,,,,,,
884.31,-0.0037,-109.26,,,,,,,
884.97,-0.00375,-110.49,,,,,,,
885.22,-0.00379,-111.38,,,,,,,
885.53,-0.0038,-111.79,,,,,,,
886.04,-0.00385,-115.44,,,,,,,
886.22,-0.00387,-116.6,,,,,,,
886.48,-0.0039,-117.92,,,,,,,
886.85,-0.00395,-117.37,,,,,,,
887.22,-0.004,-115.1,,,,,,,
887.23,-0.004,-114.99,,,,,,,
887.61,-0.00405,-110.19,,,,,,,
888.17,-0.0041,-103.31,,,,,,,
888.22,-0.00411,-102.9,,,,,,,
888.83,-0.00415,-99.75,,,,,,,
889.22,-0.00419,-100.82,,,,,,,
889.38,-0.0042,-101.33,,,,,,,
889.85,-0.00425,-104.85,,,,,,,
890.22,-0.00428,-105.36,,,,,,,
890.41,-0.0043,-106.45,,,,,,,
890.96,-0.00435,-108.85,,,,,,,
891.22,-0.00438,-110.26,,,,,,,
891.36,-0.0044,-110.57,,,,,,,
891.77,-0.00445,-109.18,,,,,,,
892.22,-0.0045,-107.33,,,,,,,
892.31,-0.0045,-107.06,,,,,,,
893.01,-0.00455,-111.71,,,,,,,
893.22,-0.00458,-113.08,,,,,,,
893.52,-0.0046,-114.46,,,,,,,
893.81,-0.00465,-115.34,,,,,,,
894.22,-0.0047,-110.51,,,,,,,
894.32,-0.0047,-109.83,,,,,,,
894.74,-0.00475,-108.5,,,,,,,
895.22,-0.0048,-104.27,,,,,,,
895.26,-0.0048,-104.04,,,,,,,
895.9,-0.00485,-105.23,,,,,,,
896.22,-0.00487,-107.91,,,,,,,
896.5,-0.00491,-111.62,,,,,,,
896.99,-0.00496,-113.47,,,,,,,
897.22,-0.00498,-114.47,,,,,,,
898.22,-0.00495,-97.32,,,,,,,
898.63,-0.00491,-88.42,,,,,,,
899.21,-0.00486,-79.64,,,,,,,
899.22,-0.00485,-79.49,,,,,,,
899.78,-0.00481,-69.07,,,,,,,
900.22,-0.00476,-60.65,,,,,,,
900.38,-0.00476,-57.72,,,,,,,
900.73,-0.00471,-50.55,,,,,,,
901.22,-0.00466,-44.95,,,,,,,
901.24,-0.00466,-44.77,,,,,,,
901.87,-0.0046,-36.86,,,,,,,
902.22,-0.00457,-32.58,,,,,,,
902.35,-0.00455,-30.39,,,,,,,
902.73,-0.0045,-24.22,,,,,,,
903.22,-0.00446,-19.68,,,,,,,
903.32,-0.00445,-18.17,,,,,,,
903.82,-0.0044,-10.45,,,,,,,
904.22,-0.00437,-7.64,,,,,,,
904.31,-0.00435,-6.91,,,,,,,
904.86,-0.0043,-4.2,,,,,,,
905.22,-0.00427,-0.23,,,,,,,
905.36,-0.00425,1.91,,,,,,,
906.01,-0.0042,11.47,,,,,,,
906.22,-0.00418,13.83,,,,,,,
906.72,-0.00415,17.81,,,,,,,
907.0,-0.0041,24.23,,,,,,,
907.22,-0.00407,24.94,,,,,,,
907.67,-0.00405,28.68,,,,,,,
908.09,-0.004,32.12,,,,,,,
908.22,-0.00399,32.39,,,,,,,
908.75,-0.00395,35.39,,,,,,,
909.18,-0.0039,38.51,,,,,,,
909.22,-0.0039,38.71,,,,,,,
909.66,-0.00385,42.22,,,,,,,
909.94,-0.0038,47.22,,,,,,,
910.22,-0.00377,50.34,,,,,,,
910.31,-0.00375,50.84,,,,,,,
910.87,-0.0037,55.68,,,,,,,
911.22,-0.00367,58.29,,,,,,,
911.4,-0.00365,60.07,,,,,,,
911.9,-0.0036,64.88,,,,,,,
912.22,-0.00357,67.93,,,,,,,
912.31,-0.00355,68.35,,,,,,,
912.81,-0.0035,69.69,,,,,,,
913.22,-0.00347,71.28,,,,,,,
913.35,-0.00345,72.15,,,,,,,
913.91,-0.0034,76.88,,,,,,,
914.22,-0.00337,79.34,,,,,,,
914.46,-0.00335,81.35,,,,,,,
914.95,-0.0033,86.41,,,,,,,
915.22,-0.00328,88.86,,,,,,,
915.47,-0.00325,91.26,,,,,,,
915.99,-0.0032,96.34,,,,,,,
916.22,-0.00318,98.41,,,,,,,
916.43,-0.00315,99.96,,,,,,,
916.86,-0.0031,101.38,,,,,,,
917.22,-0.00306,102.1,,,,,,,
917.26,-0.00305,102.2,,,,,,,
917.88,-0.003,103.07,,,,,,,
918.22,-0.00296,103.66,,,,,,,
918.31,-0.00295,103.8,,,,,,,
918.72,-0.0029,104.11,,,,,,,
919.15,-0.00285,101.42,,,,,,,
919.22,-0.00285,100.86,,,,,,,
919.69,-0.0028,97.96,,,,,,,
920.22,-0.00276,97.29,,,,,,,
920.24,-0.00275,97.35,,,,,,,
920.69,-0.0027,97.86,,,,,,,
921.19,-0.00265,98.48,,,,,,,
921.22,-0.00265,98.47,,,,,,,
921.64,-0.0026,97.96,,,,,,,
922.22,-0.00255,97.07,,,,,,,
922.25,-0.00255,97.12,,,,,,,
922.73,-0.0025,99.36,,,,,,,
923.22,-0.00246,102.42,,,,,,,
923.24,-0.00245,102.5,,,,,,,
923.68,-0.0024,103.38,,,,,,,
924.04,-0.00235,103.28,,,,,,,
924.22,-0.00233,101.72,,,,,,,
924.59,-0.0023,99.68,,,,,,,
925.13,-0.00225,97.71,,,,,,,
925.22,-0.00225,97.85,,,,,,,
925.7,-0.0022,101.47,,,,,,,
926.22,-0.00215,105.01,,,,,,,
926.23,-0.00215,104.97,,,,,,,
926.61,-0.0021,106.89,,,,,,,
927.12,-0.00205,106.68,,,,,,,
927.22,-0.00204,106.7,,,,,,,
927.62,-0.002,106.63,,,,,,,
928.04,-0.00195,106.92,,,,,,,
928.22,-0.00193,106.19,,,,,,,
928.55,-0.0019,105.0,,,,,,,
929.03,-0.00185,104.13,,,,,,,
929.22,-0.00183,103.8,,,,,,,
929.52,-0.0018,103.06,,,,,,,
930.16,-0.00175,105.0,,,,,,,
930.22,-0.00174,105.51,,,,,,,
930.56,-0.0017,106.48,,,,,,,
931.0,-0.00165,105.5,,,,,,,
931.22,-0.00164,105.17,,,,,,,
931.53,-0.0016,105.58,,,,,,,
931.92,-0.00155,104.19,,,,,,,
932.22,-0.00153,102.88,,,,,,,
932.61,-0.0015,105.02,,,,,,,
932.94,-0.00145,104.87,,,,,,,
933.22,-0.00141,103.09,,,,,,,
933.35,-0.0014,101.86,,,,,,,
934.03,-0.00135,98.78,,,,,,,
934.22,-0.00133,99.48,,,,,,,
934.5,-0.0013,100.03,,,,,,,
935.0,-0.00125,101.49,,,,,,,
935.22,-0.00123,101.64,,,,,,,
935.5,-0.0012,102.83,,,,,,,
936.02,-0.00115,103.1,,,,,,,
936.22,-0.00113,103.65,,,,,,,
936.49,-0.0011,104.55,,,,,,,
937.0,-0.00105,104.57,,,,,,,
937.22,-0.00103,104.84,,,,,,,
937.44,-0.001,104.53,,,,,,,
938.06,-0.00095,105.34,,,,,,,
938.22,-0.00093,106.1,,,,,,,
938.54,-0.0009,106.86,,,,,,,
938.91,-0.00085,107.24,,,,,,,
939.22,-0.00081,105.16,,,,,,,
939.27,-0.0008,104.64,,,,,,,
939.96,-0.00075,101.13,,,,,,,
940.22,-0.00072,101.22,,,,,,,
940.42,-0.0007,100.89,,,,,,,
940.95,-0.00065,100.11,,,,,,,
941.22,-0.00062,100.16,,,,,,,
941.36,-0.0006,99.84,,,,,,,
941.92,-0.00055,98.49,,,,,,,
942.22,-0.00052,98.62,,,,,,,
942.41,-0.0005,99.14,,,,,,,
942.89,-0.00045,100.45,,,,,,,
943.22,-0.00041,99.46,,,,,,,
943.38,-0.0004,99.02,,,,,,,
943.87,-0.00035,98.85,,,,,,,
944.22,-0.00031,97.79,,,,,,,
944.32,-0.0003,97.41,,,,,,,
944.9,-0.00025,96.55,,,,,,,
945.22,-0.00022,96.95,,,,,,,
945.4,-0.0002,97.22,,,,,,,
945.91,-0.00015,97.73,,,,,,,
946.22,-0.00011,97.88,,,,,,,
946.42,-0.0001,97.72,,,,,,,
946.97,-5e-05,100.49,,,,,,,
947.22,-2e-05,101.6,,,,,,,
1747.82,5e-05,98.26,,,,,,,
1748.22,8e-05,96.76,,,,,,,
1748.5,0.0001,97.51,,,,,,,
1748.91,0.00015,98.17,,,,,,,
1749.22,0.00019,97.26,,,,,,,
1749.48,0.0002,96.7,,,,,,,
1750.02,0.00025,99.75,,,,,,,
1750.22,0.00026,100.87,,,,,,,
1750.55,0.0003,103.38,,,,,,,
1750.95,0.00035,103.79,,,,,,,
1751.22,0.00038,103.03,,,,,,,
1751.49,0.0004,102.85,,,,,,,
1752.01,0.00045,103.68,,,,,,,
1752.22,0.00047,104.38,,,,,,,
1752.51,0.0005,105.45,,,,,,,
1753.03,0.00055,105.88,,,,,,,
1753.22,0.00058,105.96,,,,,,,
1753.41,0.0006,105.24,,,,,,,
1754.11,0.00065,106.46,,,,,,,
1754.22,0.00066,107.43,,,,,,,
1754.55,0.0007,109.65,,,,,,,
1755.04,0.00075,111.14,,,,,,,
1755.22,0.00077,111.22,,,,,,,
1755.65,0.0008,112.57,,,,,,,
1756.03,0.00085,114.69,,,,,,,
1756.22,0.00088,114.41,,,,,,,
1756.36,0.0009,113.44,,,,,,,
1756.78,0.00095,108.02,,,,,,,
1757.22,0.00099,103.72,,,,,,,
1757.31,0.001,102.95,,,,,,,
1757.9,0.00105,101.56,,,,,,,
1758.22,0.00107,101.85,,,,,,,
1758.49,0.0011,103.09,,,,,,,
1758.94,0.00115,104.13,,,,,,,
1759.22,0.00118,103.67,,,,,,,
1759.5,0.0012,103.37,,,,,,,
1759.9,0.00125,104.67,,,,,,,
1760.22,0.00127,104.91,,,,,,,
1760.6,0.0013,107.24,,,,,,,
1760.98,0.00135,109.81,,,,,,,
1761.22,0.00139,109.72,,,,,,,
1761.35,0.0014,109.03,,,,,,,
1761.8,0.00145,106.27,,,,,,,
1762.22,0.0015,102.53,,,,,,,
1762.3,0.0015,101.93,,,,,,,
1762.91,0.00155,100.74,,,,,,,
1763.22,0.00159,100.6,,,,,,,
1763.41,0.0016,100.39,,,,,,,
1763.99,0.00165,101.57,,,,,,,
1764.22,0.00167,102.83,,,,,,,
1764.42,0.0017,103.82,,,,,,,
1764.91,0.00175,102.57,,,,,,,
1765.22,0.00178,102.02,,,,,,,
1765.38,0.0018,101.68,,,,,,,
1765.92,0.00185,100.92,,,,,,,
1766.22,0.00188,101.7,,,,,,,
1766.61,0.0019,104.03,,,,,,,
1767.12,0.00195,109.12,,,,,,,
1767.22,0.00196,110.1,,,,,,,
1767.54,0.002,112.78,,,,,,,
1768.02,0.00205,113.98,,,,,,,
1768.22,0.00208,113.79,,,,,,,
1768.47,0.0021,113.61,,,,,,,
1768.95,0.00215,113.97,,,,,,,
1769.22,0.00219,113.12,,,,,,,
1769.4,0.0022,111.92,,,,,,,
1769.85,0.00225,108.55,,,,,,,
1770.22,0.00228,106.89,,,,,,,
1770.44,0.0023,106.74,,,,,,,
1770.95,0.00235,107.3,,,,,,,
1771.21,0.0024,107.58,,,,,,,
1771.22,0.00241,107.43,,,,,,,
1771.89,0.00245,102.31,,,,,,,
1772.22,0.00248,102.61,,,,,,,
1772.48,0.0025,102.82,,,,,,,
1773.0,0.00255,104.0,,,,,,,
1773.22,0.00258,104.91,,,,,,,
1773.49,0.0026,105.41,,,,,,,
1774.01,0.00265,107.92,,,,,,,
1774.22,0.00268,108.12,,,,,,,
1774.4,0.0027,107.57,,,,,,,
1775.01,0.00275,108.11,,,,,,,
1775.22,0.00279,108.79,,,,,,,
1775.4,0.0028,108.05,,,,,,,
1775.92,0.00285,106.07,,,,,,,
1776.22,0.00286,106.78,,,,,,,
1776.47,0.0029,109.28,,,,,,,
1776.99,0.00295,108.43,,,,,,,
1777.22,0.00298,109.15,,,,,,,
1777.47,0.003,108.56,,,,,,,
1777.92,0.00306,108.27,,,,,,,
1778.22,0.00309,106.9,,,,,,,
1778.35,0.00311,106.41,,,,,,,
1778.91,0.00316,106.21,,,,,,,
1779.22,0.00319,105.05,,,,,,,
1779.49,0.00321,104.76,,,,,,,
1779.98,0.00326,105.36,,,,,,,
1780.22,0.00329,105.8,,,,,,,
1780.37,0.00331,105.49,,,,,,,
1780.98,0.00336,104.41,,,,,,,
1781.22,0.00339,104.62,,,,,,,
1781.4,0.00341,104.06,,,,,,,
1782.01,0.00346,106.02,,,,,,,
1782.22,0.00348,106.63,,,,,,,
1782.47,0.00351,107.22,,,,,,,
1783.01,0.00356,109.47,,,,,,,
1783.22,0.00359,109.6,,,,,,,
1783.36,0.00361,108.92,,,,,,,
1783.8,0.00366,105.24,,,,,,,
1784.22,0.00369,102.43,,,,,,,
1784.36,0.00371,101.96,,,,,,,
1785.0,0.00376,101.49,,,,,,,
1785.22,0.00378,102.63,,,,,,,
1785.58,0.00381,104.4,,,,,,,
1786.05,0.00386,108.97,,,,,,,
1786.22,0.00388,109.77,,,,,,,
1786.48,0.00391,111.27,,,,,,,
1787.06,0.00396,112.18,,,,,,,
1787.22,0.00398,112.48,,,,,,,
1787.43,0.00401,112.38,,,,,,,
1787.93,0.00406,109.66,,,,,,,
1788.22,0.00408,109.26,,,,,,,
1788.4,0.00411,109.14,,,,,,,
1788.94,0.00416,107.32,,,,,,,
1789.22,0.00418,106.93,,,,,,,
1789.45,0.00421,106.85,,,,,,,
1790.0,0.00426,107.16,,,,,,,
1790.22,0.00428,107.88,,,,,,,
1790.46,0.00431,108.71,,,,,,,
1790.91,0.00436,107.61,,,,,,,
1791.22,0.00439,106.72,,,,,,,
1791.42,0.00441,106.22,,,,,,,
1791.93,0.00446,105.61,,,,,,,
1792.22,0.00448,105.55,,,,,,,
1792.48,0.00451,106.33,,,,,,,
1793.1,0.00456,109.26,,,,,,,
1793.22,0.00457,110.18,,,,,,,
1793.55,0.00461,111.55,,,,,,,
1793.91,0.00466,111.83,,,,,,,
1794.22,0.00469,110.15,,,,,,,
1794.52,0.00471,109.36,,,,,,,
1795.05,0.00476,112.2,,,,,,,
1795.22,0.00477,112.72,,,,,,,
1795.43,0.00481,113.24,,,,,,,
1796.06,0.00486,111.54,,,,,,,
1796.22,0.00489,112.69,,,,,,,
1796.36,0.00491,111.93,,,,,,,
1797.01,0.00496,108.22,,,,,,,
1797.22,0.00498,108.28,,,,,,,
1797.49,0.00501,108.24,,,,,,,
1798.06,0.00496,96.57,,,,,,,
1798.22,0.00495,94.19,,,,,,,
1798.65,0.00491,88.05,,,,,,,
1799.22,0.00486,81.99,,,,,,,
1799.3,0.00486,80.06,,,,,,,
1799.81,0.00481,64.88,,,,,,,
1800.22,0.00477,57.33,,,,,,,
1800.46,0.00476,52.7,,,,,,,
1800.85,0.00471,44.59,,,,,,,
1801.22,0.00467,39.76,,,,,,,
1801.32,0.00466,38.55,,,,,,,
1801.79,0.00461,34.35,,,,,,,
1802.22,0.00457,30.53,,,,,,,
1802.3,0.00456,29.86,,,,,,,
1802.85,0.00451,28.72,,,,,,,
1803.22,0.00446,26.54,,,,,,,
1803.34,0.00446,25.97,,,,,,,
1803.8,0.00441,21.95,,,,,,,
1804.22,0.00438,18.88,,,,,,,
1804.54,0.00436,14.89,,,,,,,
1805.04,0.00431,5.03,,,,,,,
1805.22,0.00429,1.93,,,,,,,
1806.06,0.00426,-2.16,,,,,,,
1806.22,0.00425,-4.68,,,,,,,
1806.46,0.00421,-11.96,,,,,,,
1806.62,0.00416,-17.01,,,,,,,
1807.22,0.00411,-22.68,,,,,,,
1807.27,0.00411,-24.29,,,,,,,
1807.54,0.00406,-32.09,,,,,,,
1807.96,0.00401,-38.48,,,,,,,
1808.22,0.00398,-41.57,,,,,,,
1808.33,0.00396,-42.75,,,,,,,
1808.76,0.00391,-43.18,,,,,,,
1809.22,0.00387,-43.47,,,,,,,
1809.37,0.00386,-44.36,,,,,,,
1810.03,0.00381,-49.87,,,,,,,
1810.22,0.00378,-52.44,,,,,,,
1810.38,0.00376,-54.36,,,,,,,
1810.94,0.0037,-56.47,,,,,,,
1811.22,0.00368,-58.14,,,,,,,
1811.36,0.00365,-59.65,,,,,,,
1811.8,0.0036,-60.53,,,,,,,
1812.22,0.00357,-61.78,,,,,,,
1812.3,0.00355,-62.18,,,,,,,
1812.88,0.0035,-64.33,,,,,,,
1813.22,0.00348,-66.45,,,,,,,
1813.42,0.00345,-68.26,,,,,,,
1813.89,0.0034,-69.72,,,,,,,
1814.22,0.00337,-71.66,,,,,,,
1814.49,0.00335,-72.96,,,,,,,
1814.92,0.0033,-78.88,,,,,,,
1815.22,0.00327,-80.75,,,,,,,
1815.39,0.00325,-81.09,,,,,,,
1815.79,0.0032,-83.07,,,,,,,
1816.22,0.00319,-85.38,,,,,,,
1816.46,0.00315,-88.9,,,,,,,
1817.02,0.0031,-92.57,,,,,,,
1817.22,0.00307,-94.55,,,,,,,
1817.41,0.00305,-95.43,,,,,,,
1817.94,0.003,-98.59,,,,,,,
1818.22,0.00296,-99.17,,,,,,,
1818.34,0.00295,-99.06,,,,,,,
1818.87,0.0029,-99.64,,,,,,,
1819.22,0.00286,-100.11,,,,,,,
1819.24,0.00285,-100.04,,,,,,,
1819.79,0.0028,-99.53,,,,,,,
1820.22,0.00277,-100.27,,,,,,,
1820.42,0.00275,-101.85,,,,,,,
1820.86,0.0027,-104.8,,,,,,,
1821.22,0.00266,-105.84,,,,,,,
1821.36,0.00265,-106.1,,,,,,,
1821.74,0.0026,-106.99,,,,,,,
1822.17,0.00255,-105.45,,,,,,,
1822.22,0.00255,-105.26,,,,,,,
1822.55,0.0025,-102.69,,,,,,,
1823.21,0.00245,-98.82,,,,,,,
1823.22,0.00245,-98.81,,,,,,,
1823.68,0.0024,-99.66,,,,,,,
1824.22,0.00235,-100.1,,,,,,,
1824.24,0.00235,-100.12,,,,,,,
1824.69,0.0023,-101.42,,,,,,,
1825.21,0.00225,-101.28,,,,,,,
1825.22,0.00225,-101.28,,,,,,,
1825.71,0.0022,-102.1,,,,,,,
1826.19,0.00215,-103.32,,,,,,,
1826.22,0.00215,-103.39,,,,,,,
1826.66,0.0021,-103.44,,,,,,,
1827.09,0.00205,-103.43,,,,,,,
1827.22,0.00204,-103.12,,,,,,,
1827.63,0.002,-102.48,,,,,,,
1828.07,0.00195,-102.83,,,,,,,
1828.22,0.00193,-102.23,,,,,,,
1828.52,0.0019,-101.01,,,,,,,
1829.12,0.00185,-98.71,,,,,,,
1829.22,0.00184,-98.99,,,,,,,
1829.62,0.0018,-98.39,,,,,,,
1830.16,0.00175,-101.3,,,,,,,
1830.22,0.00175,-101.65,,,,,,,
1830.56,0.0017,-102.2,,,,,,,
1831.12,0.00165,-102.66,,,,,,,
1831.22,0.00164,-102.84,,,,,,,
1831.47,0.0016,-102.82,,,,,,,
1831.96,0.00155,-99.54,,,,,,,
1832.22,0.00152,-98.39,,,,,,,
1832.45,0.0015,-97.51,,,,,,,
1832.88,0.00145,-96.68,,,,,,,
1833.22,0.00143,-95.79,,,,,,,
1833.63,0.0014,-96.49,,,,,,,
1834.1,0.00135,-102.08,,,,,,,
1834.22,0.00134,-102.8,,,,,,,
1834.63,0.0013,-104.33,,,,,,,
1835.13,0.00125,-106.72,,,,,,,
1835.22,0.00124,-107.04,,,,,,,
1835.53,0.0012,-107.25,,,,,,,
1835.89,0.00115,-105.61,,,,,,,
1836.22,0.00111,-102.21,,,,,,,
1836.36,0.0011,-100.49,,,,,,,
1836.82,0.00105,-97.46,,,,,,,
1837.22,0.00103,-95.04,,,,,,,
1837.72,0.001,-100.96,,,,,,,
1838.11,0.00095,-105.21,,,,,,,
1838.22,0.00094,-105.95,,,,,,,
1838.46,0.0009,-106.76,,,,,,,
1839.05,0.00085,-105.17,,,,,,,
1839.22,0.00083,-105.26,,,,,,,
1839.37,0.0008,-104.82,,,,,,,
1839.89,0.00075,-101.61,,,,,,,
1840.22,0.0007,-99.25,,,,,,,
1840.26,0.0007,-98.84,,,,,,,
1840.83,0.00065,-95.89,,,,,,,
1841.22,0.00063,-94.95,,,,,,,
1841.52,0.0006,-96.56,,,,,,,
1842.01,0.00055,-98.69,,,,,,,
1842.22,0.00051,-99.05,,,,,,,
1842.42,0.0005,-98.12,,,,,,,
1842.89,0.00045,-98.59,,,,,,,
1843.22,0.00043,-98.34,,,,,,,
1843.48,0.0004,-98.68,,,,,,,
1843.95,0.00035,-99.41,,,,,,,
1844.22,0.00033,-99.17,,,,,,,
1844.5,0.0003,-99.58,,,,,,,
1844.97,0.00025,-100.66,,,,,,,
1845.22,0.00023,-100.75,,,,,,,
1845.54,0.0002,-102.89,,,,,,,
1846.16,0.00015,-107.38,,,,,,,
1846.22,0.00014,-108.56,,,,,,,
1846.6,0.0001,-110.13,,,,,,,
1847.13,5e-05,-112.69,,,,,,,
1847.22,4e-05,-113.04,,,,,,,
1847.51,0.0,-113.88,,,,,,,
1848.0,-5e-05,-113.51,,,,,,,
1848.22,-7e-05,-113.06,,,,,,,
1848.51,-0.0001,-110.65,,,,,,,
1848.91,-0.00015,-110.17,,,,,,,
1849.22,-0.00017,-108.69,,,,,,,
1849.46,-0.0002,-108.2,,,,,,,
1849.85,-0.00025,-106.98,,,,,,,
1850.22,-0.00027,-104.47,,,,,,,
1850.49,-0.0003,-105.47,,,,,,,
1850.95,-0.00035,-104.79,,,,,,,
1851.22,-0.00037,-104.85,,,,,,,
1851.45,-0.0004,-105.19,,,,,,,
1851.94,-0.00045,-104.11,,,,,,,
1852.22,-0.00048,-103.81,,,,,,,
1852.37,-0.0005,-103.57,,,,,,,
1852.93,-0.00055,-104.31,,,,,,,
1853.22,-0.00058,-103.78,,,,,,,
1853.35,-0.0006,-103.73,,,,,,,
1853.74,-0.00065,-101.74,,,,,,,
1854.22,-0.00068,-99.81,,,,,,,
1854.53,-0.0007,-100.39,,,,,,,
1854.85,-0.00075,-101.07,,,,,,,
1855.22,-0.00079,-99.58,,,,,,,
1855.54,-0.0008,-99.52,,,,,,,
1855.86,-0.00085,-101.48,,,,,,,
1856.22,-0.00087,-101.4,,,,,,,
1856.54,-0.0009,-103.56,,,,,,,
1856.82,-0.00095,-103.87,,,,,,,
1857.22,-0.00096,-103.43,,,,,,,
1857.51,-0.001,-106.64,,,,,,,
1858.1,-0.00105,-110.41,,,,,,,
1858.22,-0.00106,-111.02,,,,,,,
1858.52,-0.0011,-113.48,,,,,,,
1858.85,-0.00115,-113.77,,,,,,,
1859.22,-0.00119,-111.28,,,,,,,
1859.29,-0.0012,-110.92,,,,,,,
1860.04,-0.00125,-111.89,,,,,,,
1860.22,-0.00127,-112.44,,,,,,,
1860.48,-0.0013,-112.47,,,,,,,
1860.91,-0.00135,-111.81,,,,,,,
1861.22,-0.00138,-110.76,,,,,,,
1861.37,-0.0014,-110.23,,,,,,,
1861.85,-0.00145,-108.03,,,,,,,
1862.22,-0.00148,-106.98,,,,,,,
1862.42,-0.0015,-106.65,,,,,,,
1862.94,-0.00155,-106.91,,,,,,,
1863.22,-0.00158,-107.46,,,,,,,
1863.42,-0.0016,-107.56,,,,,,,
1863.93,-0.00165,-107.61,,,,,,,
1864.22,-0.00168,-107.54,,,,,,,
1864.41,-0.0017,-107.55,,,,,,,
1864.88,-0.00175,-106.67,,,,,,,
1865.22,-0.00178,-106.21,,,,,,,
1865.39,-0.0018,-105.96,,,,,,,
1865.94,-0.00185,-105.31,,,,,,,
1866.22,-0.00189,-105.1,,,,,,,
1866.32,-0.0019,-104.76,,,,,,,
1866.92,-0.00195,-102.64,,,,,,,
1867.22,-0.00198,-102.97,,,,,,,
1867.38,-0.002,-103.05,,,,,,,
1867.88,-0.00205,-102.57,,,,,,,
1868.22,-0.00208,-101.59,,,,,,,
1868.37,-0.0021,-102.03,,,,,,,
1868.95,-0.00215,-102.04,,,,,,,
1869.22,-0.00218,-103.07,,,,,,,
1869.35,-0.0022,-103.14,,,,,,,
1870.05,-0.00225,-104.91,,,,,,,
1870.22,-0.00227,-106.15,,,,,,,
1870.51,-0.0023,-108.6,,,,,,,
1871.0,-0.00235,-110.51,,,,,,,
1871.22,-0.00237,-110.91,,,,,,,
1871.47,-0.0024,-111.4,,,,,,,
1871.95,-0.00245,-109.83,,,,,,,
1872.22,-0.00247,-110.1,,,,,,,
1872.42,-0.0025,-110.29,,,,,,,
1872.94,-0.00255,-108.76,,,,,,,
1873.22,-0.00257,-109.44,,,,,,,
1873.41,-0.0026,-109.8,,,,,,,
1873.8,-0.00265,-108.07,,,,,,,
1874.22,-0.00269,-105.73,,,,,,,
1874.44,-0.0027,-105.58,,,,,,,
1874.97,-0.00275,-107.27,,,,,,,
1875.22,-0.0028,-107.2,,,,,,,
1875.43,-0.0028,-106.18,,,,,,,
1875.95,-0.00285,-107.06,,,,,,,
1876.22,-0.00289,-107.0,,,,,,,
1876.41,-0.0029,-106.62,,,,,,,
1876.89,-0.00295,-107.39,,,,,,,
1877.22,-0.00298,-107.25,,,,,,,
1877.42,-0.003,-107.26,,,,,,,
1877.93,-0.00305,-106.19,,,,,,,
1878.22,-0.00309,-106.04,,,,,,,
1878.37,-0.0031,-105.79,,,,,,,
1878.93,-0.00315,-105.18,,,,,,,
1879.22,-0.00319,-105.37,,,,,,,
1879.35,-0.0032,-105.11,,,,,,,
1879.86,-0.00325,-103.58,,,,,,,
1880.22,-0.00326,-104.97,,,,,,,
1880.48,-0.0033,-107.72,,,,,,,
1880.93,-0.00335,-106.52,,,,,,,
1881.22,-0.0034,-105.75,,,,,,,
1881.27,-0.0034,-105.41,,,,,,,
1882.1,-0.00345,-107.4,,,,,,,
1882.22,-0.00347,-108.61,,,,,,,
1882.59,-0.0035,-111.12,,,,,,,
1883.1,-0.00355,-114.53,,,,,,,
1883.22,-0.00356,-115.1,,,,,,,
1883.61,-0.0036,-117.37,,,,,,,
1884.04,-0.00365,-119.09,,,,,,,
1884.22,-0.00368,-119.15,,,,,,,
1884.36,-0.0037,-118.83,,,,,,,
1884.93,-0.00375,-115.43,,,,,,,
1885.22,-0.00378,-114.69,,,,,,,
1885.46,-0.0038,-114.3,,,,,,,
1885.89,-0.00385,-112.81,,,,,,,
1886.22,-0.00388,-111.8,,,,,,,
1886.44,-0.0039,-111.44,,,,,,,
1886.85,-0.00395,-111.01,,,,,,,
1887.22,-0.00399,-109.51,,,,,,,
1887.45,-0.004,-108.92,,,,,,,
1888.0,-0.00405,-110.73,,,,,,,
1888.22,-0.00408,-111.05,,,,,,,
1888.43,-0.0041,-110.96,,,,,,,
1888.95,-0.00415,-110.66,,,,,,,
1889.22,-0.00419,-110.51,,,,,,,
1889.42,-0.0042,-110.28,,,,,,,
1889.96,-0.00425,-111.26,,,,,,,
1890.22,-0.00429,-110.98,,,,,,,
1890.34,-0.0043,-110.37,,,,,,,
1890.99,-0.00435,-111.23,,,,,,,
1891.22,-0.00439,-111.41,,,,,,,
1891.41,-0.0044,-110.94,,,,,,,
1891.85,-0.00445,-109.77,,,,,,,
1892.22,-0.00449,-107.46,,,,,,,
1892.53,-0.0045,-106.69,,,,,,,
1892.97,-0.00455,-111.04,,,,,,,
1893.22,-0.00459,-111.41,,,,,,,
1893.51,-0.0046,-111.37,,,,,,,
1894.03,-0.00465,-112.8,,,,,,,
1894.22,-0.00468,-113.39,,,,,,,
1894.5,-0.0047,-113.91,,,,,,,
1894.89,-0.00476,-113.4,,,,,,,
1895.22,-0.0048,-111.44,,,,,,,
1895.3,-0.00481,-110.97,,,,,,,
1895.85,-0.00486,-107.53,,,,,,,
1896.22,-0.0049,-106.55,,,,,,,
1896.31,-0.00491,-106.19,,,,,,,
1896.87,-0.00496,-106.07,,,,,,,
1897.22,-0.00498,-105.68,,,,,,,
1897.46,-0.00501,-106.29,,,,,,,
1898.15,-0.00496,-92.02,,,,,,,
1898.22,-0.00495,-90.82,,,,,,,
1898.76,-0.00491,-81.75,,,,,,,
1899.22,-0.00487,-74.35,,,,,,,
1899.33,-0.00486,-72.04,,,,,,,
1899.68,-0.00481,-66.29,,,,,,,
1900.13,-0.00475,-62.41,,,,,,,
1900.22,-0.00475,-61.84,,,,,,,
1900.89,-0.0047,-54.97,,,,,,,
1901.22,-0.00466,-49.05,,,,,,,
1901.26,-0.00465,-48.59,,,,,,,
1901.73,-0.0046,-44.13,,,,,,,
1902.22,-0.00457,-39.89,,,,,,,
1902.39,-0.00455,-37.96,,,,,,,
1902.84,-0.0045,-34.17,,,,,,,
1903.22,-0.00447,-31.04,,,,,,,
1903.39,-0.00445,-29.51,,,,,,,
1903.91,-0.0044,-21.49,,,,,,,
1904.22,-0.00438,-16.84,,,,,,,
1904.5,-0.00435,-12.91,,,,,,,
1905.1,-0.0043,-3.97,,,,,,,
1905.22,-0.00429,-1.19,,,,,,,
1905.45,-0.00425,2.62,,,,,,,
1905.7,-0.0042,4.6,,,,,,,
1906.22,-0.00417,2.96,,,,,,,
1906.4,-0.00415,3.77,,,,,,,
1906.93,-0.0041,11.28,,,,,,,
1907.22,-0.00408,12.34,,,,,,,
1907.61,-0.00405,14.03,,,,,,,
1908.12,-0.004,20.71,,,,,,,
1908.22,-0.00398,23.68,,,,,,,
1908.66,-0.00395,24.47,,,,,,,
1909.16,-0.0039,29.83,,,,,,,
1909.22,-0.0039,30.17,,,,,,,
1909.8,-0.00385,35.49,,,,,,,
1910.22,-0.00382,40.32,,,,,,,
1910.39,-0.0038,42.57,,,,,,,
1910.84,-0.00375,50.74,,,,,,,
1911.07,-0.0037,57.26,,,,,,,
1911.22,-0.00368,59.4,,,,,,,
1911.49,-0.00365,63.44,,,,,,,
1911.94,-0.0036,67.75,,,,,,,
1912.22,-0.00358,70.62,,,,,,,
1912.47,-0.00355,73.71,,,,,,,
1913.05,-0.0035,80.86,,,,,,,
1913.22,-0.00348,82.59,,,,,,,
1913.42,-0.00345,83.91,,,,,,,
1914.0,-0.0034,86.31,,,,,,,
1914.22,-0.00338,88.46,,,,,,,
1914.44,-0.00335,90.09,,,,,,,
1914.94,-0.0033,91.7,,,,,,,
1915.22,-0.00327,92.46,,,,,,,
1915.38,-0.00325,92.73,,,,,,,
1915.97,-0.0032,96.19,,,,,,,
1916.22,-0.00317,97.7,,,,,,,
1916.45,-0.00315,98.42,,,,,,,
1916.94,-0.0031,100.14,,,,,,,
1917.22,-0.00307,101.93,,,,,,,
1917.35,-0.00305,101.8,,,,,,,
1917.82,-0.003,102.43,,,,,,,
1918.22,-0.00296,100.49,,,,,,,
1918.25,-0.00295,100.3,,,,,,,
1918.8,-0.0029,98.59,,,,,,,
1919.22,-0.00286,98.88,,,,,,,
1919.33,-0.00285,99.05,,,,,,,
1919.73,-0.0028,98.81,,,,,,,
1920.22,-0.00277,98.77,,,,,,,
1920.35,-0.00275,99.79,,,,,,,
1920.77,-0.0027,100.56,,,,,,,
1921.22,-0.00266,102.2,,,,,,,
1921.26,-0.00265,102.36,,,,,,,
1921.69,-0.0026,102.19,,,,,,,
1922.22,-0.00256,101.39,,,,,,,
1922.26,-0.00255,101.5,,,,,,,
1922.77,-0.0025,102.49,,,,,,,
1923.22,-0.00246,103.97,,,,,,,
1923.32,-0.00245,104.77,,,,,,,
1923.76,-0.0024,109.04,,,,,,,
1924.21,-0.00235,108.74,,,,,,,
1924.22,-0.00235,108.64,,,,,,,
1924.54,-0.0023,106.89,,,,,,,
1924.99,-0.00225,102.63,,,,,,,
1925.22,-0.00224,100.38,,,,,,,
1925.57,-0.0022,99.65,,,,,,,
1926.06,-0.00215,99.62,,,,,,,
1926.22,-0.00213,98.91,,,,,,,
1926.55,-0.0021,97.22,,,,,,,
1927.05,-0.00205,96.39,,,,,,,
1927.22,-0.00203,96.03,,,,,,,
1927.71,-0.002,97.05,,,,,,,
1928.14,-0.00195,99.31,,,,,,,
1928.22,-0.00194,99.54,,,,,,,
1928.51,-0.0019,98.81,,,,,,,
1929.01,-0.00185,97.51,,,,,,,
1929.22,-0.00183,96.35,,,,,,,
1929.52,-0.0018,95.25,,,,,,,
1930.15,-0.00175,95.86,,,,,,,
1930.22,-0.00174,96.24,,,,,,,
1930.54,-0.0017,96.99,,,,,,,
1931.09,-0.00165,96.75,,,,,,,
1931.22,-0.00164,97.09,,,,,,,
1931.65,-0.0016,98.88,,,,,,,
1932.07,-0.00155,100.04,,,,,,,
1932.22,-0.00154,99.92,,,,,,,
1932.65,-0.0015,101.07,,,,,,,
1933.04,-0.00145,100.94,,,,,,,
1933.22,-0.00144,100.67,,,,,,,
1933.6,-0.0014,101.84,,,,,,,
1934.1,-0.00135,102.45,,,,,,,
1934.22,-0.00134,102.78,,,,,,,
1934.55,-0.0013,102.84,,,,,,,
1935.0,-0.00125,102.12,,,,,,,
1935.22,-0.00123,101.64,,,,,,,
1935.48,-0.0012,101.53,,,,,,,
1935.98,-0.00115,100.85,,,,,,,
1936.22,-0.00114,100.6,,,,,,,
1936.64,-0.0011,103.4,,,,,,,
1937.16,-0.00105,107.26,,,,,,,
1937.22,-0.00104,107.69,,,,,,,
1937.57,-0.001,108.73,,,,,,,
1938.05,-0.00095,109.26,,,,,,,
1938.22,-0.00093,109.09,,,,,,,
1938.5,-0.0009,108.48,,,,,,,
1939.03,-0.00085,107.89,,,,,,,
1939.22,-0.00083,107.76,,,,,,,
1939.5,-0.0008,107.71,,,,,,,
1939.97,-0.00075,106.19,,,,,,,
1940.22,-0.00073,105.57,,,,,,,
1940.49,-0.0007,106.05,,,,,,,
1941.02,-0.00065,105.68,,,,,,,
1941.22,-0.00063,105.85,,,,,,,
1941.38,-0.0006,105.9,,,,,,,
1941.97,-0.00055,98.64,,,,,,,
1942.22,-0.00053,98.98,,,,,,,
1942.46,-0.0005,99.81,,,,,,,
1943.11,-0.00045,101.18,,,,,,,
1943.22,-0.00043,102.2,,,,,,,
1943.45,-0.0004,102.94,,,,,,,
1943.85,-0.00035,101.38,,,,,,,
1944.22,-0.00031,99.01,,,,,,,
1944.43,-0.0003,98.17,,,,,,,
1944.93,-0.00025,98.37,,,,,,,
1945.22,-0.00022,97.91,,,,,,,
1945.52,-0.0002,99.12,,,,,,,
1946.1,-0.00015,103.1,,,,,,,
1946.22,-0.00013,103.92,,,,,,,
1946.55,-0.0001,105.21,,,,,,,
1947.08,-5e-05,105.15,,,,,,,
1947.22,-3e-05,106.03,,,,,,,
3747.67,0.0,101.43,,,,,,,
3748.14,5e-05,103.57,,,,,,,
3748.22,6e-05,103.79,,,,,,,
3748.62,0.0001,105.25,,,,,,,
3749.15,0.00015,105.32,,,,,,,
3749.22,0.00016,105.5,,,,,,,
3749.53,0.0002,104.89,,,,,,,
3750.04,0.00025,102.3,,,,,,,
3750.22,0.00027,101.82,,,,,,,
3750.61,0.0003,102.08,,,,,,,
3751.08,0.00035,102.93,,,,,,,
3751.22,0.00037,102.8,,,,,,,
3751.77,0.0004,104.17,,,,,,,
3752.14,0.00045,106.98,,,,,,,
3752.22,0.00046,107.08,,,,,,,
3752.7,0.0005,109.58,,,,,,,
3753.22,0.00055,111.01,,,,,,,
3753.23,0.00055,111.04,,,,,,,
3753.66,0.0006,113.58,,,,,,,
3754.09,0.00065,112.24,,,,,,,
3754.22,0.00068,111.56,,,,,,,
3754.42,0.0007,110.48,,,,,,,
3755.06,0.00075,107.46,,,,,,,
3755.22,0.00077,107.18,,,,,,,
3755.55,0.0008,107.07,,,,,,,
3755.85,0.00085,104.61,,,,,,,
3756.22,0.00089,98.89,,,,,,,
3756.53,0.0009,96.09,,,,,,,
3757.11,0.00095,98.28,,,,,,,
3757.22,0.00097,98.92,,,,,,,
3757.62,0.001,100.67,,,,,,,
3758.06,0.00105,102.66,,,,,,,
3758.22,0.00106,102.72,,,,,,,
3758.51,0.0011,103.48,,,,,,,
3759.13,0.00115,103.12,,,,,,,
3759.22,0.00117,103.49,,,,,,,
3759.54,0.0012,103.26,,,,,,,
3760.17,0.00125,104.2,,,,,,,
3760.22,0.00126,104.6,,,,,,,
3760.65,0.0013,105.38,,,,,,,
3760.94,0.00135,105.19,,,,,,,
3761.22,0.00136,103.92,,,,,,,
3761.57,0.0014,104.38,,,,,,,
3762.05,0.00145,104.61,,,,,,,
3762.22,0.00146,104.42,,,,,,,
3762.67,0.0015,106.3,,,,,,,
3763.14,0.00155,110.16,,,,,,,
3763.22,0.00157,110.34,,,,,,,
3763.71,0.0016,108.74,,,,,,,
3764.06,0.00165,110.29,,,,,,,
3764.22,0.00168,109.61,,,,,,,
3764.59,0.0017,109.16,,,,,,,
3765.0,0.00175,107.84,,,,,,,
3765.22,0.00178,106.18,,,,,,,
3765.57,0.0018,104.26,,,,,,,
3765.89,0.00185,102.49,,,,,,,
3766.22,0.00186,100.39,,,,,,,
3766.67,0.0019,103.31,,,,,,,
3767.14,0.00196,106.35,,,,,,,
3767.22,0.00197,106.77,,,,,,,
3767.49,0.00201,106.18,,,,,,,
3768.09,0.00206,106.15,,,,,,,
3768.22,0.00207,106.2,,,,,,,
3768.56,0.00211,105.54,,,,,,,
3769.01,0.00216,104.58,,,,,,,
3769.22,0.00217,103.93,,,,,,,
3769.54,0.00221,103.1,,,,,,,
3770.15,0.00226,104.69,,,,,,,
3770.22,0.00227,105.02,,,,,,,
3770.6,0.00231,104.79,,,,,,,
3771.14,0.00236,107.56,,,,,,,
3771.22,0.00237,107.78,,,,,,,
3771.47,0.00241,107.02,,,,,,,
3772.14,0.00246,106.74,,,,,,,
3772.22,0.00247,107.01,,,,,,,
3772.48,0.00251,106.44,,,,,,,
3773.14,0.00256,104.15,,,,,,,
3773.22,0.00257,104.48,,,,,,,
3773.64,0.00261,105.4,,,,,,,
3774.2,0.00266,107.93,,,,,,,
3774.22,0.00266,108.01,,,,,,,
3774.59,0.00271,110.16,,,,,,,
3775.09,0.00276,108.55,,,,,,,
3775.22,0.00276,108.39,,,,,,,
3775.54,0.00281,108.1,,,,,,,
3776.09,0.00286,108.1,,,,,,,
3776.22,0.00287,108.29,,,,,,,
3776.64,0.00291,109.25,,,,,,,
3777.11,0.00296,110.0,,,,,,,
3777.22,0.00297,110.01,,,,,,,
3777.54,0.00301,110.28,,,,,,,
3778.05,0.00306,108.26,,,,,,,
3778.22,0.00307,107.95,,,,,,,
3778.65,0.00311,109.91,,,,,,,
3779.08,0.00316,110.53,,,,,,,
3779.22,0.00318,109.99,,,,,,,
3779.54,0.00321,107.37,,,,,,,
3780.12,0.00326,107.13,,,,,,,
3780.22,0.00327,107.37,,,,,,,
3780.61,0.00331,107.68,,,,,,,
3780.99,0.00336,107.24,,,,,,,
3781.22,0.00339,105.3,,,,,,,
3781.51,0.00341,102.85,,,,,,,
3782.06,0.00346,103.37,,,,,,,
3782.22,0.00347,103.28,,,,,,,
3782.53,0.00351,103.85,,,,,,,
3783.07,0.00356,103.62,,,,,,,
3783.22,0.00358,103.51,,,,,,,
3783.69,0.00361,104.71,,,,,,,
3784.14,0.00366,106.08,,,,,,,
3784.22,0.00366,106.34,,,,,,,
3784.69,0.00371,110.37,,,,,,,
3785.18,0.00376,110.66,,,,,,,
3785.22,0.00376,110.72,,,,,,,
3785.62,0.00381,111.53,,,,,,,
3786.18,0.00386,111.97,,,,,,,
3786.22,0.00386,112.12,,,,,,,
3786.6,0.00391,112.89,,,,,,,
3786.93,0.00396,111.21,,,,,,,
3787.22,0.00397,108.14,,,,,,,
3787.64,0.00401,109.51,,,,,,,
3788.12,0.00406,110.49,,,,,,,
3788.22,0.00407,110.62,,,,,,,
3788.42,0.00411,109.72,,,,,,,
3788.89,0.00416,104.57,,,,,,,
3789.22,0.00419,101.77,,,,,,,
3789.57,0.00421,100.28,,,,,,,
3790.18,0.00426,104.31,,,,,,,
3790.22,0.00427,104.84,,,,,,,
3790.59,0.00431,105.95,,,,,,,
3791.08,0.00436,105.38,,,,,,,
3791.22,0.00437,105.62,,,,,,,
3791.59,0.00441,106.42,,,,,,,
3792.09,0.00446,105.39,,,,,,,
3792.22,0.00446,105.51,,,,,,,
3792.57,0.00451,108.07,,,,,,,
3793.1,0.00456,107.86,,,,,,,
3793.22,0.00457,107.94,,,,,,,
3793.6,0.00461,108.13,,,,,,,
3794.11,0.00466,108.94,,,,,,,
3794.22,0.00467,109.05,,,,,,,
3794.52,0.00471,108.54,,,,,,,
3795.16,0.00476,106.36,,,,,,,
3795.22,0.00476,106.6,,,,,,,
3795.66,0.00481,109.41,,,,,,,
3796.16,0.00486,110.35,,,,,,,
3796.22,0.00487,110.57,,,,,,,
3796.62,0.00491,111.03,,,,,,,
3797.15,0.00496,111.21,,,,,,,
3797.22,0.00497,111.36,,,,,,,
3797.56,0.00501,111.33,,,,,,,
3798.22,0.00496,94.85,,,,,,,
3798.26,0.00496,94.17,,,,,,,
3798.76,0.00491,84.75,,,,,,,
3799.22,0.00488,77.67,,,,,,,
3799.5,0.00486,71.83,,,,,,,
3799.77,0.00481,65.06,,,,,,,
3800.22,0.00477,60.9,,,,,,,
3800.33,0.00476,59.39,,,,,,,
3800.84,0.00471,54.09,,,,,,,
3801.22,0.00467,51.18,,,,,,,
3801.32,0.00466,50.61,,,,,,,
3802.01,0.00461,41.69,,,,,,,
3802.22,0.00457,38.34,,,,,,,
3802.41,0.00456,36.29,,,,,,,
3803.12,0.00451,27.52,,,,,,,
3803.22,0.0045,25.19,,,,,,,
3803.48,0.00446,20.53,,,,,,,
3803.79,0.00441,17.74,,,,,,,
3804.22,0.0044,17.1,,,,,,,
3804.52,0.00436,11.93,,,,,,,
3805.04,0.00431,5.09,,,,,,,
3805.22,0.00428,3.43,,,,,,,
3805.63,0.00426,2.47,,,,,,,
3806.22,0.00424,0.66,,,,,,,
3806.48,0.00421,-3.48,,,,,,,
3806.71,0.00416,-10.56,,,,,,,
3807.22,0.00411,-14.51,,,,,,,
3807.5,0.00411,-17.4,,,,,,,
3807.99,0.00406,-26.3,,,,,,,
3808.18,0.00401,-32.53,,,,,,,
3808.22,0.00399,-33.61,,,,,,,
3808.39,0.00396,-34.8,,,,,,,
3809.08,0.00391,-34.6,,,,,,,
3809.22,0.00388,-36.42,,,,,,,
3809.46,0.00386,-38.69,,,,,,,
3809.92,0.00381,-41.8,,,,,,,
3810.22,0.00378,-42.78,,,,,,,
3810.56,0.00376,-44.88,,,,,,,
3811.12,0.00371,-53.16,,,,,,,
3811.22,0.00369,-55.35,,,,,,,
3811.44,0.00366,-58.06,,,,,,,
3811.98,0.00361,-58.21,,,,,,,
3812.22,0.00358,-59.28,,,,,,,
3812.67,0.00356,-62.93,,,,,,,
3813.19,0.00351,-72.57,,,,,,,
3813.22,0.0035,-73.05,,,,,,,
3813.52,0.00346,-76.69,,,,,,,
3814.06,0.00341,-79.21,,,,,,,
3814.22,0.00339,-80.19,,,,,,,
3814.46,0.00336,-80.9,,,,,,,
3815.12,0.00331,-81.06,,,,,,,
3815.22,0.0033,-82.16,,,,,,,
3815.58,0.00326,-86.32,,,,,,,
3816.06,0.00321,-89.48,,,,,,,
3816.22,0.00319,-90.34,,,,,,,
3816.54,0.00316,-91.7,,,,,,,
3817.13,0.00311,-95.84,,,,,,,
3817.22,0.0031,-96.6,,,,,,,
3817.55,0.00306,-98.77,,,,,,,
3817.99,0.00301,-99.99,,,,,,,
3818.22,0.00298,-99.92,,,,,,,
3818.42,0.00296,-99.7,,,,,,,
3818.92,0.00291,-99.54,,,,,,,
3819.22,0.00287,-99.04,,,,,,,
3819.3,0.00286,-98.76,,,,,,,
3819.76,0.00281,-96.48,,,,,,,
3820.22,0.00276,-94.75,,,,,,,
3820.31,0.00276,-94.54,,,,,,,
3820.82,0.00271,-93.81,,,,,,,
3821.22,0.00266,-93.29,,,,,,,
3821.33,0.00266,-93.26,,,,,,,
3821.79,0.00261,-92.99,,,,,,,
3822.22,0.00258,-93.01,,,,,,,
3822.4,0.00256,-94.99,,,,,,,
3822.95,0.00251,-97.99,,,,,,,
3823.22,0.00247,-99.37,,,,,,,
3823.36,0.00246,-99.49,,,,,,,
3823.71,0.00241,-100.22,,,,,,,
3824.22,0.00237,-98.14,,,,,,,
3824.39,0.00236,-98.67,,,,,,,
3824.71,0.0023,-99.3,,,,,,,
3825.22,0.00226,-97.28,,,,,,,
3825.23,0.00225,-97.32,,,,,,,
3825.88,0.0022,-97.53,,,,,,,
3826.2,0.00215,-98.56,,,,,,,
3826.22,0.00215,-98.52,,,,,,,
3826.93,0.0021,-98.46,,,,,,,
3827.21,0.00205,-100.31,,,,,,,
3827.22,0.00205,-100.29,,,,,,,
3827.82,0.002,-100.51,,,,,,,
3828.22,0.00196,-101.04,,,,,,,
3828.41,0.00195,-101.78,,,,,,,
3828.85,0.0019,-106.13,,,,,,,
3829.17,0.00185,-106.91,,,,,,,
3829.22,0.00185,-106.78,,,,,,,
3829.81,0.0018,-106.81,,,,,,,
3830.22,0.00177,-108.37,,,,,,,
3830.31,0.00175,-108.69,,,,,,,
3830.7,0.0017,-108.93,,,,,,,
3831.21,0.00165,-107.55,,,,,,,
3831.22,0.00165,-107.54,,,,,,,
3831.63,0.0016,-106.44,,,,,,,
3832.22,0.00156,-105.03,,,,,,,
3832.29,0.00155,-104.93,,,,,,,
3832.55,0.0015,-104.7,,,,,,,
3833.13,0.00145,-101.97,,,,,,,
3833.22,0.00144,-101.74,,,,,,,
3833.64,0.0014,-101.41,,,,,,,
3834.19,0.00135,-100.84,,,,,,,
3834.22,0.00135,-100.94,,,,,,,
3834.65,0.0013,-100.71,,,,,,,
3835.02,0.00125,-100.0,,,,,,,
3835.22,0.00123,-99.0,,,,,,,
3835.57,0.0012,-98.18,,,,,,,
3836.22,0.00115,-97.21,,,,,,,
3836.22,0.00115,-97.23,,,,,,,
3836.71,0.0011,-101.99,,,,,,,
3837.22,0.00105,-104.89,,,,,,,
3837.22,0.00105,-104.92,,,,,,,
3837.69,0.001,-106.28,,,,,,,
3838.13,0.00095,-106.19,,,,,,,
3838.22,0.00094,-106.04,,,,,,,
3838.61,0.0009,-105.2,,,,,,,
3839.06,0.00085,-104.0,,,,,,,
3839.22,0.00084,-103.48,,,,,,,
3839.51,0.0008,-102.54,,,,,,,
3839.99,0.00075,-100.58,,,,,,,
3840.22,0.00073,-99.63,,,,,,,
3840.52,0.0007,-98.67,,,,,,,
3841.08,0.00065,-97.58,,,,,,,
3841.22,0.00064,-97.87,,,,,,,
3841.66,0.0006,-99.71,,,,,,,
3842.22,0.00056,-104.43,,,,,,,
3842.31,0.00055,-105.25,,,,,,,
3842.79,0.0005,-109.65,,,,,,,
3843.07,0.00045,-111.11,,,,,,,
3843.22,0.00043,-111.0,,,,,,,
3843.55,0.0004,-109.28,,,,,,,
3844.06,0.00035,-107.08,,,,,,,
3844.22,0.00034,-106.67,,,,,,,
3844.67,0.0003,-106.23,,,,,,,
3845.12,0.00025,-107.99,,,,,,,
3845.22,0.00024,-108.19,,,,,,,
3845.47,0.0002,-107.59,,,,,,,
3846.04,0.00015,-104.51,,,,,,,
3846.22,0.00014,-104.26,,,,,,,
3846.61,0.0001,-104.67,,,,,,,
3847.08,5e-05,-104.87,,,,,,,
3847.22,4e-05,-104.82,,,,,,,
3847.5,0.0,-104.53,,,,,,,
3848.1,-5e-05,-105.53,,,,,,,
3848.22,-6e-05,-105.95,,,,,,,
3848.54,-0.0001,-105.56,,,,,,,
3849.07,-0.00015,-105.55,,,,,,,
3849.22,-0.00016,-105.46,,,,,,,
3849.58,-0.0002,-106.53,,,,,,,
3850.14,-0.00025,-106.2,,,,,,,
3850.22,-0.00026,-106.51,,,,,,,
3850.5,-0.0003,-107.18,,,,,,,
3851.02,-0.00035,-104.7,,,,,,,
3851.22,-0.00037,-104.31,,,,,,,
3851.57,-0.0004,-103.4,,,,,,,
3852.07,-0.00045,-105.04,,,,,,,
3852.22,-0.00047,-105.14,,,,,,,
3852.47,-0.0005,-104.34,,,,,,,
3852.98,-0.00055,-102.57,,,,,,,
3853.22,-0.00057,-101.38,,,,,,,
3853.59,-0.0006,-100.91,,,,,,,
3854.14,-0.00065,-104.04,,,,,,,
3854.22,-0.00066,-104.53,,,,,,,
3854.59,-0.0007,-106.65,,,,,,,
3854.97,-0.00075,-106.9,,,,,,,
3855.22,-0.00079,-105.37,,,,,,,
3855.33,-0.0008,-104.4,,,,,,,
3855.98,-0.00085,-100.44,,,,,,,
3856.22,-0.00088,-100.05,,,,,,,
3856.49,-0.0009,-98.86,,,,,,,
3857.01,-0.00095,-98.58,,,,,,,
3857.22,-0.00097,-98.97,,,,,,,
3857.39,-0.001,-98.86,,,,,,,
3857.97,-0.00105,-96.96,,,,,,,
3858.22,-0.00106,-97.39,,,,,,,
3858.57,-0.0011,-99.58,,,,,,,
3859.07,-0.00115,-99.87,,,,,,,
3859.22,-0.00117,-100.27,,,,,,,
3859.44,-0.0012,-99.83,,,,,,,
3860.05,-0.00125,-99.9,,,,,,,
3860.22,-0.00126,-100.58,,,,,,,
3860.63,-0.0013,-102.87,,,,,,,
3861.05,-0.00135,-104.08,,,,,,,
3861.22,-0.00137,-103.85,,,,,,,
3861.57,-0.0014,-102.51,,,,,,,
3862.03,-0.00145,-103.28,,,,,,,
3862.22,-0.00147,-103.16,,,,,,,
3862.59,-0.0015,-103.8,,,,,,,
3863.01,-0.00155,-104.16,,,,,,,
3863.22,-0.00157,-103.99,,,,,,,
3863.5,-0.0016,-103.91,,,,,,,
3864.02,-0.00165,-102.85,,,,,,,
3864.22,-0.00166,-102.83,,,,,,,
3864.68,-0.0017,-105.62,,,,,,,
3865.01,-0.00175,-107.37,,,,,,,
3865.22,-0.00177,-106.91,,,,,,,
3865.6,-0.0018,-106.41,,,,,,,
3865.96,-0.00185,-106.42,,,,,,,
3866.22,-0.00186,-105.48,,,,,,,
3866.54,-0.0019,-106.43,,,,,,,
3867.17,-0.00195,-106.84,,,,,,,
3867.22,-0.00196,-107.12,,,,,,,
3867.59,-0.002,-109.23,,,,,,,
3867.86,-0.00205,-108.55,,,,,,,
3868.22,-0.00208,-105.57,,,,,,,
3868.51,-0.0021,-104.39,,,,,,,
3869.12,-0.00215,-105.58,,,,,,,
3869.22,-0.00216,-106.06,,,,,,,
3869.76,-0.0022,-110.21,,,,,,,
3870.15,-0.00225,-112.41,,,,,,,
3870.22,-0.00226,-112.65,,,,,,,
3870.54,-0.0023,-113.08,,,,,,,
3871.05,-0.00235,-113.41,,,,,,,
3871.22,-0.00237,-112.98,,,,,,,
3871.51,-0.0024,-112.13,,,,,,,
3871.99,-0.00245,-110.43,,,,,,,
3872.22,-0.00246,-109.56,,,,,,,
3872.64,-0.0025,-110.4,,,,,,,
3873.12,-0.00255,-111.24,,,,,,,
3873.22,-0.00256,-111.34,,,,,,,
3873.51,-0.0026,-111.34,,,,,,,
3873.98,-0.00265,-110.1,,,,,,,
3874.22,-0.00268,-108.83,,,,,,,
3874.48,-0.0027,-107.73,,,,,,,
3874.95,-0.00275,-106.54,,,,,,,
3875.22,-0.00277,-106.3,,,,,,,
3875.57,-0.0028,-106.9,,,,,,,
3875.91,-0.00285,-106.91,,,,,,,
3876.22,-0.00286,-105.18,,,,,,,
3876.52,-0.0029,-105.63,,,,,,,
3877.06,-0.00295,-106.75,,,,,,,
3877.22,-0.00297,-107.13,,,,,,,
3877.67,-0.003,-107.81,,,,,,,
3878.22,-0.00305,-112.52,,,,,,,
3878.23,-0.00305,-112.64,,,,,,,
3878.49,-0.0031,-114.25,,,,,,,
3878.93,-0.00315,-112.65,,,,,,,
3879.22,-0.00318,-110.66,,,,,,,
3879.42,-0.0032,-109.48,,,,,,,
3879.85,-0.00325,-106.55,,,,,,,
3880.22,-0.00328,-104.58,,,,,,,
3880.58,-0.0033,-104.61,,,,,,,
3881.02,-0.00335,-106.56,,,,,,,
3881.22,-0.00337,-106.58,,,,,,,
3881.67,-0.0034,-109.4,,,,,,,
3882.09,-0.00345,-110.42,,,,,,,
3882.22,-0.00347,-110.43,,,,,,,
3882.46,-0.0035,-109.88,,,,,,,
3882.98,-0.00355,-107.47,,,,,,,
3883.22,-0.00358,-106.75,,,,,,,
3883.56,-0.0036,-105.95,,,,,,,
3884.18,-0.00365,-107.33,,,,,,,
3884.22,-0.00366,-107.7,,,,,,,
3884.65,-0.0037,-109.35,,,,,,,
3885.13,-0.00375,-111.31,,,,,,,
3885.22,-0.00377,-111.8,,,,,,,
3885.51,-0.0038,-111.63,,,,,,,
3886.15,-0.00385,-111.57,,,,,,,
3886.22,-0.00387,-111.9,,,,,,,
3886.47,-0.0039,-111.35,,,,,,,
3887.2,-0.00395,-114.33,,,,,,,
3887.22,-0.00396,-114.55,,,,,,,
3887.61,-0.004,-116.06,,,,,,,
3887.95,-0.00405,-115.82,,,,,,,
3888.22,-0.00407,-114.19,,,,,,,
3888.5,-0.0041,-113.08,,,,,,,
3889.04,-0.00415,-111.43,,,,,,,
3889.22,-0.00417,-111.18,,,,,,,
3889.63,-0.0042,-110.62,,,,,,,
3890.09,-0.00425,-111.52,,,,,,,
3890.22,-0.00427,-111.82,,,,,,,
3890.45,-0.0043,-111.5,,,,,,,
3890.89,-0.00435,-108.61,,,,,,,
3891.22,-0.00436,-107.75,,,,,,,
3891.46,-0.0044,-108.38,,,,,,,
3891.92,-0.00445,-106.35,,,,,,,
3892.22,-0.00449,-104.97,,,,,,,
3892.6,-0.0045,-104.33,,,,,,,
3892.99,-0.00455,-105.02,,,,,,,
3893.22,-0.00458,-104.4,,,,,,,
3893.38,-0.0046,-103.75,,,,,,,
3894.08,-0.00465,-104.93,,,,,,,
3894.22,-0.00467,-105.49,,,,,,,
3894.67,-0.0047,-108.66,,,,,,,
3895.2,-0.00475,-111.48,,,,,,,
3895.22,-0.00476,-111.63,,,,,,,
3895.59,-0.0048,-112.71,,,,,,,
3896.12,-0.00485,-112.95,,,,,,,
3896.22,-0.00486,-113.09,,,,,,,
3896.52,-0.0049,-112.99,,,,,,,
3897.15,-0.00495,-109.28,,,,,,,
3897.22,-0.00497,-109.53,,,,,,,
3897.68,-0.005,-108.26,,,,,,,
3898.22,-0.00496,-97.21,,,,,,,
3898.23,-0.00495,-96.94,,,,,,,
3898.77,-0.0049,-86.66,,,,,,,
3899.22,-0.00487,-80.55,,,,,,,
3899.41,-0.00485,-78.22,,,,,,,
3900.03,-0.0048,-66.14,,,,,,,
3900.22,-0.00478,-61.71,,,,,,,
3900.44,-0.00475,-56.13,,,,,,,
3900.91,-0.0047,-48.85,,,,,,,
3901.22,-0.00467,-45.72,,,,,,,
3901.43,-0.00465,-43.67,,,,,,,
3901.97,-0.0046,-39.37,,,,,,,
3902.22,-0.00458,-37.13,,,,,,,
3902.51,-0.00455,-34.81,,,,,,,
3903.1,-0.0045,-29.39,,,,,,,
3903.22,-0.00449,-28.08,,,,,,,
3903.59,-0.00445,-24.62,,,,,,,
3904.1,-0.0044,-19.54,,,,,,,
3904.22,-0.00439,-18.12,,,,,,,
3904.59,-0.00435,-13.66,,,,,,,
3905.17,-0.0043,-5.01,,,,,,,
3905.22,-0.0043,-4.03,,,,,,,
3905.6,-0.00425,2.33,,,,,,,
3906.08,-0.0042,8.31,,,,,,,
3906.22,-0.00419,9.41,,,,,,,
3906.69,-0.00415,12.42,,,,,,,
3907.22,-0.00412,17.31,,,,,,,
3907.33,-0.0041,18.54,,,,,,,
3907.62,-0.00405,22.75,,,,,,,
3908.16,-0.004,24.8,,,,,,,
3908.22,-0.004,24.98,,,,,,,
3908.98,-0.00395,31.07,,,,,,,
3909.22,-0.00393,34.3,,,,,,,
3909.65,-0.0039,41.3,,,,,,,
3910.06,-0.00385,47.77,,,,,,,
3910.22,-0.00383,51.9,,,,,,,
3910.36,-0.0038,56.25,,,,,,,
3910.75,-0.00375,64.01,,,,,,,
3911.07,-0.0037,67.69,,,,,,,
3911.22,-0.00368,68.34,,,,,,,
3911.49,-0.00365,68.13,,,,,,,
3911.94,-0.0036,67.81,,,,,,,
3912.22,-0.00358,67.23,,,,,,,
3912.54,-0.00355,67.69,,,,,,,
3913.04,-0.0035,71.92,,,,,,,
3913.22,-0.00349,72.82,,,,,,,
3913.59,-0.00345,77.03,,,,,,,
3914.19,-0.0034,82.49,,,,,,,
3914.22,-0.0034,82.88,,,,,,,
3914.65,-0.00335,87.9,,,,,,,
3915.01,-0.0033,90.5,,,,,,,
3915.22,-0.00329,90.45,,,,,,,
3915.58,-0.00325,91.68,,,,,,,
3916.03,-0.0032,93.91,,,,,,,
3916.22,-0.00318,93.96,,,,,,,
3916.48,-0.00315,93.21,,,,,,,
3916.8,-0.0031,92.15,,,,,,,
3917.22,-0.00307,88.33,,,,,,,
3917.41,-0.00305,87.85,,,,,,,
3918.04,-0.003,89.05,,,,,,,
3918.22,-0.00298,90.27,,,,,,,
3918.43,-0.00295,91.36,,,,,,,
3919.02,-0.0029,93.81,,,,,,,
3919.22,-0.00288,95.29,,,,,,,
3919.45,-0.00285,96.33,,,,,,,
3920.0,-0.0028,97.98,,,,,,,
3920.22,-0.00278,99.22,,,,,,,
3920.34,-0.00275,100.67,,,,,,,
3920.84,-0.0027,99.33,,,,,,,
3921.22,-0.00266,97.56,,,,,,,
3921.35,-0.00265,96.91,,,,,,,
3921.84,-0.0026,96.6,,,,,,,
3922.22,-0.00257,96.6,,,,,,,
3922.46,-0.00255,97.9,,,,,,,
3922.87,-0.0025,100.37,,,,,,,
3923.22,-0.00247,100.72,,,,,,,
3923.45,-0.00245,101.64,,,,,,,
3923.93,-0.0024,103.65,,,,,,,
3924.22,-0.00237,104.57,,,,,,,
3924.35,-0.00235,104.54,,,,,,,
3924.79,-0.0023,104.1,,,,,,,
3925.22,-0.00225,102.25,,,,,,,
3925.25,-0.00225,102.09,,,,,,,
3925.95,-0.0022,103.55,,,,,,,
3926.22,-0.00217,104.9,,,,,,,
3926.45,-0.00215,105.94,,,,,,,
3926.89,-0.0021,109.34,,,,,,,
3927.22,-0.00206,109.73,,,,,,,
3927.26,-0.00205,109.61,,,,,,,
3927.77,-0.002,105.6,,,,,,,
3928.22,-0.00197,105.41,,,,,,,
3928.35,-0.00195,105.91,,,,,,,
3928.8,-0.0019,106.64,,,,,,,
3929.22,-0.00185,105.77,,,,,,,
3929.25,-0.00185,105.68,,,,,,,
3929.7,-0.0018,103.95,,,,,,,
3930.22,-0.00176,104.75,,,,,,,
3930.29,-0.00175,105.25,,,,,,,
3930.77,-0.0017,106.24,,,,,,,
3931.04,-0.00165,105.36,,,,,,,
3931.22,-0.00163,103.07,,,,,,,
3931.65,-0.0016,101.05,,,,,,,
3932.13,-0.00155,99.07,,,,,,,
3932.22,-0.00155,98.77,,,,,,,
3932.75,-0.0015,99.47,,,,,,,
3933.0,-0.00145,99.35,,,,,,,
3933.22,-0.00143,96.82,,,,,,,
3933.61,-0.0014,93.92,,,,,,,
3934.22,-0.00135,94.28,,,,,,,
3934.28,-0.00135,94.74,,,,,,,
3934.76,-0.0013,98.27,,,,,,,
3935.15,-0.00125,101.42,,,,,,,
3935.22,-0.00124,101.69,,,,,,,
3935.65,-0.0012,101.37,,,,,,,
3936.22,-0.00115,100.9,,,,,,,
3936.24,-0.00115,100.96,,,,,,,
3936.76,-0.0011,102.99,,,,,,,
3937.22,-0.00106,107.09,,,,,,,
3937.29,-0.00105,107.51,,,,,,,
3937.6,-0.001,108.23,,,,,,,
3938.13,-0.00095,104.85,,,,,,,
3938.22,-0.00094,104.58,,,,,,,
3938.57,-0.0009,103.34,,,,,,,
3939.16,-0.00085,102.56,,,,,,,
3939.22,-0.00084,102.55,,,,,,,
3939.53,-0.0008,101.29,,,,,,,
3940.01,-0.00075,98.08,,,,,,,
3940.22,-0.00074,97.35,,,,,,,
3940.59,-0.0007,98.16,,,,,,,
3941.09,-0.00065,97.52,,,,,,,
3941.22,-0.00063,97.43,,,,,,,
3941.63,-0.0006,97.33,,,,,,,
3942.15,-0.00055,99.4,,,,,,,
3942.22,-0.00054,99.44,,,,,,,
3942.68,-0.0005,100.81,,,,,,,
3943.08,-0.00045,102.0,,,,,,,
3943.22,-0.00044,101.76,,,,,,,
3943.67,-0.0004,103.23,,,,,,,
3944.21,-0.00035,106.23,,,,,,,
3944.22,-0.00035,106.28,,,,,,,
3944.65,-0.0003,105.84,,,,,,,
3945.19,-0.00025,105.35,,,,,,,
3945.22,-0.00025,105.43,,,,,,,
3945.6,-0.0002,107.0,,,,,,,
3946.01,-0.00015,105.01,,,,,,,
3946.22,-0.00014,103.8,,,,,,,
3946.66,-0.0001,104.22,,,,,,,
3947.18,-5e-05,104.79,,,,,,,
3947.22,-5e-05,104.91,,,,,,,
9747.86,0.0,98.03,,,,,,,
9748.22,2e-05,97.56,,,,,,,
9748.5,5e-05,99.72,,,,,,,
9749.02,0.0001,101.38,,,,,,,
9749.22,0.00012,102.69,,,,,,,
9749.53,0.00015,104.68,,,,,,,
9749.96,0.0002,105.46,,,,,,,
9750.22,0.00022,105.82,,,,,,,
9750.46,0.00025,106.75,,,,,,,
9750.95,0.0003,106.58,,,,,,,
9751.22,0.00032,106.9,,,,,,,
9751.41,0.00035,107.29,,,,,,,
9751.98,0.0004,107.71,,,,,,,
9752.22,0.00044,107.12,,,,,,,
9752.36,0.00045,106.43,,,,,,,
9752.91,0.0005,105.08,,,,,,,
9753.22,0.00053,104.46,,,,,,,
9753.41,0.00055,104.0,,,,,,,
9753.91,0.0006,104.75,,,,,,,
9754.22,0.00064,103.43,,,,,,,
9754.28,0.00065,103.06,,,,,,,
9754.99,0.0007,100.49,,,,,,,
9755.22,0.00073,101.75,,,,,,,
9755.38,0.00075,102.01,,,,,,,
9756.0,0.0008,103.56,,,,,,,
9756.22,0.00083,104.18,,,,,,,
9756.34,0.00085,103.9,,,,,,,
9756.76,0.0009,100.97,,,,,,,
9757.22,0.00094,99.3,,,,,,,
9757.34,0.00095,99.1,,,,,,,
9757.82,0.001,98.68,,,,,,,
9758.22,0.00105,96.57,,,,,,,
9758.34,0.00105,96.01,,,,,,,
9759.06,0.0011,99.68,,,,,,,
9759.22,0.00112,101.37,,,,,,,
9759.51,0.00115,104.42,,,,,,,
9759.81,0.0012,104.2,,,,,,,
9760.22,0.00123,103.7,,,,,,,
9760.44,0.00125,104.38,,,,,,,
9760.94,0.0013,104.32,,,,,,,
9761.22,0.00133,104.44,,,,,,,
9761.45,0.00135,105.06,,,,,,,
9761.96,0.0014,105.25,,,,,,,
9762.22,0.00143,105.71,,,,,,,
9762.38,0.00145,105.4,,,,,,,
9762.86,0.0015,105.1,,,,,,,
9763.22,0.00153,103.92,,,,,,,
9763.44,0.00155,104.81,,,,,,,
9764.08,0.0016,108.66,,,,,,,
9764.22,0.00162,109.67,,,,,,,
9764.51,0.00165,111.3,,,,,,,
9764.9,0.0017,111.24,,,,,,,
9765.22,0.00172,110.98,,,,,,,
9765.49,0.00175,112.08,,,,,,,
9765.96,0.0018,111.97,,,,,,,
9766.22,0.00184,112.34,,,,,,,
9766.38,0.00185,111.06,,,,,,,
9766.88,0.0019,109.66,,,,,,,
9767.22,0.00194,108.29,,,,,,,
9767.29,0.00195,107.98,,,,,,,
9767.78,0.002,103.81,,,,,,,
9768.22,0.00205,102.35,,,,,,,
9768.26,0.00205,102.16,,,,,,,
9768.84,0.0021,100.22,,,,,,,
9769.22,0.00215,99.51,,,,,,,
9769.24,0.00215,99.51,,,,,,,
9769.98,0.0022,101.13,,,,,,,
9770.22,0.00222,102.85,,,,,,,
9770.46,0.00225,104.17,,,,,,,
9770.97,0.0023,108.33,,,,,,,
9771.22,0.00235,108.13,,,,,,,
9771.29,0.00235,107.65,,,,,,,
9772.0,0.0024,105.46,,,,,,,
9772.22,0.00243,106.55,,,,,,,
9772.35,0.00245,106.63,,,,,,,
9772.87,0.0025,104.83,,,,,,,
9773.22,0.00253,104.71,,,,,,,
9773.4,0.00255,104.89,,,,,,,
9773.92,0.0026,105.02,,,,,,,
9774.22,0.00263,105.62,,,,,,,
9774.49,0.00265,106.9,,,,,,,
9774.97,0.0027,107.79,,,,,,,
9775.22,0.00273,108.44,,,,,,,
9775.45,0.00275,108.66,,,,,,,
9775.93,0.0028,108.97,,,,,,,
9776.22,0.00284,108.24,,,,,,,
9776.32,0.00285,107.79,,,,,,,
9776.83,0.0029,104.62,,,,,,,
9777.22,0.00295,103.28,,,,,,,
9777.26,0.00295,103.08,,,,,,,
9778.03,0.003,100.91,,,,,,,
9778.22,0.00302,102.63,,,,,,,
9778.49,0.00305,104.76,,,,,,,
9778.89,0.0031,105.38,,,,,,,
9779.22,0.00313,105.94,,,,,,,
9779.41,0.00315,106.43,,,,,,,
9779.91,0.0032,105.46,,,,,,,
9780.22,0.00323,105.9,,,,,,,
9780.5,0.00325,107.11,,,,,,,
9780.91,0.0033,108.7,,,,,,,
9781.22,0.00332,108.0,,,,,,,
9781.48,0.00335,109.33,,,,,,,
9781.94,0.0034,109.83,,,,,,,
9782.22,0.00345,109.0,,,,,,,
9782.27,0.00345,108.72,,,,,,,
9782.86,0.0035,103.22,,,,,,,
9783.22,0.00353,103.25,,,,,,,
9783.38,0.00355,103.49,,,,,,,
9783.83,0.0036,102.68,,,,,,,
9784.22,0.00364,102.0,,,,,,,
9784.45,0.00365,102.12,,,,,,,
9784.96,0.0037,104.43,,,,,,,
9785.22,0.00373,105.18,,,,,,,
9785.45,0.00375,106.19,,,,,,,
9785.96,0.0038,106.76,,,,,,,
9786.22,0.00383,107.21,,,,,,,
9786.45,0.00385,107.43,,,,,,,
9786.91,0.0039,107.94,,,,,,,
9787.22,0.00393,108.04,,,,,,,
9787.46,0.00396,109.36,,,,,,,
9787.92,0.00401,108.43,,,,,,,
9788.22,0.00405,107.85,,,,,,,
9788.27,0.00406,107.65,,,,,,,
9788.88,0.00411,107.6,,,,,,,
9789.22,0.00413,107.14,,,,,,,
9789.41,0.00416,107.52,,,,,,,
9789.77,0.00421,106.01,,,,,,,
9790.22,0.00424,102.41,,,,,,,
9790.35,0.00426,102.03,,,,,,,
9791.0,0.00431,102.95,,,,,,,
9791.22,0.00433,104.08,,,,,,,
9791.5,0.00436,105.49,,,,,,,
9791.86,0.00441,106.97,,,,,,,
9792.22,0.00443,106.06,,,,,,,
9792.43,0.00446,106.6,,,,,,,
9793.02,0.00451,107.49,,,,,,,
9793.22,0.00453,108.53,,,,,,,
9793.45,0.00456,109.64,,,,,,,
9793.9,0.00461,108.46,,,,,,,
9794.22,0.00465,107.16,,,,,,,
9794.36,0.00466,106.37,,,,,,,
9794.84,0.00471,104.77,,,,,,,
9795.22,0.00474,104.36,,,,,,,
9795.39,0.00476,104.45,,,,,,,
9795.87,0.00481,103.59,,,,,,,
9796.22,0.00484,103.59,,,,,,,
9796.4,0.00486,103.81,,,,,,,
9796.97,0.00491,103.14,,,,,,,
9797.22,0.00494,103.95,,,,,,,
9797.48,0.00496,104.9,,,,,,,
9798.04,0.00501,106.86,,,,,,,
9798.22,0.00501,103.06,,,,,,,
9798.66,0.00496,94.24,,,,,,,
9799.22,0.00491,83.05,,,,,,,
9799.23,0.00491,82.83,,,,,,,
9799.74,0.00486,74.01,,,,,,,
9800.17,0.00481,67.83,,,,,,,
9800.22,0.0048,67.29,,,,,,,
9800.92,0.00476,54.62,,,,,,,
9801.22,0.00471,47.62,,,,,,,
9801.27,0.00471,46.82,,,,,,,
9801.83,0.00466,40.65,,,,,,,
9802.22,0.00462,35.55,,,,,,,
9802.42,0.00461,32.6,,,,,,,
9802.92,0.00456,25.12,,,,,,,
9803.22,0.00452,21.37,,,,,,,
9803.39,0.00451,19.67,,,,,,,
9803.78,0.00446,15.93,,,,,,,
9804.22,0.00443,12.52,,,,,,,
9804.47,0.00441,8.49,,,,,,,
9805.01,0.00436,2.45,,,,,,,
9805.22,0.00434,1.58,,,,,,,
9805.84,0.00431,-0.16,,,,,,,
9806.14,0.00425,-6.47,,,,,,,
9806.22,0.00423,-8.76,,,,,,,
9806.64,0.0042,-11.13,,,,,,,
9807.22,0.00416,-16.16,,,,,,,
9807.26,0.00415,-16.86,,,,,,,
9807.77,0.0041,-24.07,,,,,,,
9808.0,0.00405,-30.35,,,,,,,
9808.22,0.00402,-34.09,,,,,,,
9808.37,0.004,-35.4,,,,,,,
9808.9,0.00395,-40.77,,,,,,,
9809.22,0.00392,-43.24,,,,,,,
9809.35,0.0039,-44.02,,,,,,,
9809.96,0.00385,-49.97,,,,,,,
9810.22,0.00382,-52.63,,,,,,,
9810.32,0.0038,-53.3,,,,,,,
9810.84,0.00375,-53.64,,,,,,,
9811.22,0.00372,-55.62,,,,,,,
9811.36,0.0037,-56.41,,,,,,,
9811.86,0.00365,-58.09,,,,,,,
9812.22,0.00362,-59.68,,,,,,,
9812.37,0.0036,-60.48,,,,,,,
9812.92,0.00355,-63.75,,,,,,,
9813.22,0.00353,-66.13,,,,,,,
9813.47,0.0035,-67.86,,,,,,,
9814.02,0.00345,-71.14,,,,,,,
9814.22,0.00343,-72.47,,,,,,,
9814.41,0.0034,-74.15,,,,,,,
9814.83,0.00335,-76.79,,,,,,,
9815.22,0.00332,-78.15,,,,,,,
9815.46,0.0033,-79.52,,,,,,,
9816.02,0.00325,-85.89,,,,,,,
9816.22,0.00322,-88.08,,,,,,,
9816.32,0.0032,-88.61,,,,,,,
9816.87,0.00315,-89.38,,,,,,,
9817.22,0.00312,-90.46,,,,,,,
9817.38,0.0031,-91.09,,,,,,,
9817.82,0.00305,-91.78,,,,,,,
9818.22,0.00301,-90.67,,,,,,,
9818.3,0.003,-90.57,,,,,,,
9818.73,0.00295,-90.58,,,,,,,
9819.22,0.00291,-90.69,,,,,,,
9819.33,0.0029,-91.06,,,,,,,
9819.68,0.00285,-91.73,,,,,,,
9820.22,0.00281,-89.53,,,,,,,
9820.37,0.0028,-89.98,,,,,,,
9820.73,0.00275,-91.93,,,,,,,
9821.22,0.0027,-92.88,,,,,,,
9821.23,0.0027,-92.89,,,,,,,
9821.8,0.00265,-94.31,,,,,,,
9822.22,0.00261,-95.64,,,,,,,
9822.29,0.0026,-95.91,,,,,,,
9822.74,0.00255,-97.74,,,,,,,
9823.11,0.0025,-97.5,,,,,,,
9823.22,0.00249,-97.09,,,,,,,
9823.77,0.00245,-98.64,,,,,,,
9824.22,0.00241,-99.32,,,,,,,
9824.25,0.0024,-99.5,,,,,,,
9824.64,0.00235,-99.17,,,,,,,
9825.14,0.0023,-98.16,,,,,,,
9825.22,0.00229,-98.0,,,,,,,
9825.7,0.00225,-98.91,,,,,,,
9826.1,0.0022,-99.35,,,,,,,
9826.22,0.00218,-99.05,,,,,,,
9826.62,0.00215,-97.68,,,,,,,
9827.02,0.0021,-96.57,,,,,,,
9827.22,0.00209,-95.95,,,,,,,
9827.85,0.00205,-101.65,,,,,,,
9828.15,0.002,-104.62,,,,,,,
9828.22,0.00199,-104.95,,,,,,,
9828.53,0.00195,-104.48,,,,,,,
9829.2,0.0019,-102.4,,,,,,,
9829.22,0.0019,-102.42,,,,,,,
9829.68,0.00185,-104.32,,,,,,,
9830.13,0.0018,-105.33,,,,,,,
9830.22,0.00179,-105.14,,,,,,,
9830.52,0.00175,-104.3,,,,,,,
9830.96,0.0017,-101.63,,,,,,,
9831.22,0.00168,-100.27,,,,,,,
9831.55,0.00165,-99.38,,,,,,,
9832.1,0.0016,-100.08,,,,,,,
9832.22,0.00159,-100.24,,,,,,,
9832.5,0.00155,-100.47,,,,,,,
9833.06,0.0015,-99.98,,,,,,,
9833.22,0.00148,-100.05,,,,,,,
9833.5,0.00145,-99.63,,,,,,,
9834.09,0.0014,-98.49,,,,,,,
9834.22,0.00139,-98.98,,,,,,,
9834.58,0.00135,-100.56,,,,,,,
9835.05,0.0013,-101.73,,,,,,,
9835.22,0.00128,-101.96,,,,,,,
9835.5,0.00125,-101.92,,,,,,,
9835.94,0.0012,-100.12,,,,,,,
9836.22,0.00118,-99.02,,,,,,,
9836.53,0.00115,-98.99,,,,,,,
9837.09,0.0011,-100.39,,,,,,,
9837.22,0.00109,-101.05,,,,,,,
9837.56,0.00105,-102.5,,,,,,,
9838.05,0.001,-102.64,,,,,,,
9838.22,0.00099,-102.91,,,,,,,
9838.45,0.00095,-103.48,,,,,,,
9838.96,0.0009,-101.75,,,,,,,
9839.22,0.00086,-100.56,,,,,,,
9839.34,0.00085,-99.75,,,,,,,
9839.72,0.0008,-97.47,,,,,,,
9840.22,0.00077,-92.55,,,,,,,
9840.5,0.00075,-92.08,,,,,,,
9841.04,0.0007,-95.23,,,,,,,
9841.22,0.00067,-96.2,,,,,,,
9841.52,0.00065,-96.41,,,,,,,
9842.1,0.0006,-99.75,,,,,,,
9842.22,0.00058,-100.59,,,,,,,
9842.45,0.00055,-101.05,,,,,,,
9843.05,0.0005,-101.33,,,,,,,
9843.22,0.00048,-101.91,,,,,,,
9843.59,0.00045,-103.27,,,,,,,
9843.95,0.0004,-104.24,,,,,,,
9844.22,0.00038,-103.97,,,,,,,
9844.5,0.00035,-104.22,,,,,,,
9845.05,0.0003,-104.86,,,,,,,
9845.22,0.00028,-104.64,,,,,,,
9845.47,0.00025,-105.04,,,,,,,
9845.86,0.0002,-103.24,,,,,,,
9846.22,0.00018,-102.99,,,,,,,
9846.46,0.00015,-103.37,,,,,,,
9847.0,0.0001,-103.4,,,,,,,
9847.22,8e-05,-104.13,,,,,,,
9847.52,5e-05,-105.51,,,,,,,
9847.99,-0.0,-106.36,,,,,,,
9848.22,-2e-05,-106.45,,,,,,,
9848.5,-5e-05,-106.9,,,,,,,
9849.03,-0.0001,-107.7,,,,,,,
9849.22,-0.00013,-107.3,,,,,,,
9849.39,-0.00015,-106.94,,,,,,,
9849.61,-0.0002,-105.38,,,,,,,
9850.22,-0.00022,-98.82,,,,,,,
9850.41,-0.00025,-100.09,,,,,,,
9850.83,-0.0003,-99.72,,,,,,,
9851.22,-0.00033,-98.69,,,,,,,
9851.39,-0.00035,-98.65,,,,,,,
9851.95,-0.0004,-100.41,,,,,,,
9852.22,-0.00042,-101.54,,,,,,,
9852.45,-0.00045,-102.82,,,,,,,
9852.99,-0.0005,-103.92,,,,,,,
9853.22,-0.00052,-104.74,,,,,,,
9853.43,-0.00055,-105.62,,,,,,,
9853.88,-0.0006,-104.57,,,,,,,
9854.22,-0.00063,-103.95,,,,,,,
9854.43,-0.00065,-103.98,,,,,,,
9855.09,-0.0007,-104.79,,,,,,,
9855.22,-0.00072,-105.69,,,,,,,
9855.44,-0.00075,-106.53,,,,,,,
9855.8,-0.0008,-106.17,,,,,,,
9856.22,-0.00084,-103.02,,,,,,,
9856.47,-0.00085,-102.75,,,,,,,
9856.86,-0.0009,-103.04,,,,,,,
9857.22,-0.00094,-101.86,,,,,,,
9857.34,-0.00095,-101.42,,,,,,,
9857.85,-0.001,-99.98,,,,,,,
9858.22,-0.00103,-100.76,,,,,,,
9858.4,-0.00105,-100.52,,,,,,,
9859.12,-0.0011,-104.09,,,,,,,
9859.22,-0.00111,-105.04,,,,,,,
9859.6,-0.00115,-107.8,,,,,,,
9860.0,-0.0012,-109.45,,,,,,,
9860.22,-0.00123,-109.57,,,,,,,
9860.49,-0.00125,-109.41,,,,,,,
9860.83,-0.0013,-109.28,,,,,,,
9861.22,-0.00133,-108.32,,,,,,,
9861.5,-0.00135,-108.27,,,,,,,
9861.94,-0.0014,-108.52,,,,,,,
9862.22,-0.00143,-108.41,,,,,,,
9862.44,-0.00145,-108.37,,,,,,,
9862.85,-0.0015,-107.89,,,,,,,
9863.21,-0.00155,-106.34,,,,,,,
9863.22,-0.00156,-106.29,,,,,,,
9863.69,-0.0016,-102.87,,,,,,,
9864.21,-0.00165,-99.19,,,,,,,
9864.22,-0.00165,-99.11,,,,,,,
9864.94,-0.0017,-100.15,,,,,,,
9865.22,-0.00173,-101.26,,,,,,,
9865.51,-0.00175,-102.76,,,,,,,
9865.93,-0.0018,-104.33,,,,,,,
9866.22,-0.00184,-104.06,,,,,,,
9866.41,-0.00185,-103.52,,,,,,,
9866.97,-0.0019,-103.36,,,,,,,
9867.22,-0.00192,-104.32,,,,,,,
9867.4,-0.00195,-105.09,,,,,,,
9867.84,-0.002,-103.85,,,,,,,
9868.22,-0.00204,-102.95,,,,,,,
9868.32,-0.00205,-102.76,,,,,,,
9869.05,-0.0021,-104.06,,,,,,,
9869.22,-0.00212,-105.19,,,,,,,
9869.51,-0.00215,-106.74,,,,,,,
9869.92,-0.0022,-107.44,,,,,,,
9870.22,-0.00223,-107.29,,,,,,,
9870.5,-0.00225,-107.53,,,,,,,
9870.85,-0.0023,-107.45,,,,,,,
9871.22,-0.00235,-105.75,,,,,,,
9871.35,-0.00235,-105.16,,,,,,,
9871.99,-0.0024,-105.49,,,,,,,
9872.22,-0.00243,-106.0,,,,,,,
9872.43,-0.00245,-106.21,,,,,,,
9872.98,-0.0025,-106.49,,,,,,,
9873.22,-0.00252,-107.11,,,,,,,
9873.55,-0.00255,-109.26,,,,,,,
9873.95,-0.0026,-110.56,,,,,,,
9874.22,-0.00264,-110.61,,,,,,,
9874.35,-0.00265,-110.34,,,,,,,
9874.85,-0.0027,-109.22,,,,,,,
9875.22,-0.00274,-106.7,,,,,,,
9875.53,-0.00275,-106.61,,,,,,,
9875.94,-0.0028,-108.74,,,,,,,
9876.22,-0.00284,-108.29,,,,,,,
9876.35,-0.00285,-107.76,,,,,,,
9876.87,-0.0029,-106.23,,,,,,,
9877.22,-0.00294,-105.55,,,,,,,
9877.34,-0.00295,-105.37,,,,,,,
9877.75,-0.003,-103.62,,,,,,,
9878.22,-0.00305,-101.24,,,,,,,
9878.53,-0.00305,-101.51,,,,,,,
9878.81,-0.0031,-102.75,,,,,,,
9879.22,-0.00313,-102.62,,,,,,,
9879.38,-0.00316,-103.37,,,,,,,
9880.03,-0.00321,-105.24,,,,,,,
9880.22,-0.00324,-106.11,,,,,,,
9880.41,-0.00326,-105.87,,,,,,,
9880.98,-0.00331,-106.16,,,,,,,
9881.22,-0.00332,-106.74,,,,,,,
9881.58,-0.00336,-108.79,,,,,,,
9882.12,-0.00341,-111.6,,,,,,,
9882.22,-0.00342,-111.97,,,,,,,
9882.48,-0.00346,-112.59,,,,,,,
9882.83,-0.00351,-112.64,,,,,,,
9883.22,-0.00355,-108.69,,,,,,,
9883.42,-0.00356,-107.58,,,,,,,
9883.88,-0.00361,-106.76,,,,,,,
9884.22,-0.00364,-105.79,,,,,,,
9884.35,-0.00366,-105.33,,,,,,,
9884.98,-0.00371,-106.23,,,,,,,
9885.22,-0.00373,-106.61,,,,,,,
9885.46,-0.00376,-107.1,,,,,,,
9886.0,-0.00381,-106.83,,,,,,,
9886.22,-0.00384,-107.48,,,,,,,
9886.52,-0.00386,-107.43,,,,,,,
9886.98,-0.00391,-109.64,,,,,,,
9887.22,-0.00393,-109.78,,,,,,,
9887.39,-0.00396,-109.53,,,,,,,
9887.97,-0.00401,-107.88,,,,,,,
9888.22,-0.00402,-108.34,,,,,,,
9888.54,-0.00406,-110.17,,,,,,,
9888.93,-0.00411,-111.31,,,,,,,
9889.22,-0.00413,-110.59,,,,,,,
9889.51,-0.00416,-110.87,,,,,,,
9889.94,-0.00421,-111.31,,,,,,,
9890.22,-0.00424,-110.98,,,,,,,
9890.36,-0.00426,-110.5,,,,,,,
9890.93,-0.00431,-109.01,,,,,,,
9891.22,-0.00434,-108.89,,,,,,,
9891.45,-0.00436,-108.84,,,,,,,
9891.98,-0.00441,-109.44,,,,,,,
9892.22,-0.00443,-109.8,,,,,,,
9892.42,-0.00446,-109.87,,,,,,,
9893.0,-0.00451,-110.28,,,,,,,
9893.22,-0.00453,-110.69,,,,,,,
9893.39,-0.00456,-110.62,,,,,,,
9893.85,-0.00461,-108.81,,,,,,,
9894.22,-0.00465,-107.51,,,,,,,
9894.3,-0.00466,-107.22,,,,,,,
9894.83,-0.00471,-105.25,,,,,,,
9895.22,-0.00474,-104.71,,,,,,,
9895.49,-0.00476,-105.19,,,,,,,
9895.97,-0.00481,-106.88,,,,,,,
9896.22,-0.00483,-107.5,,,,,,,
9896.46,-0.00486,-107.94,,,,,,,
9896.86,-0.00491,-107.88,,,,,,,
9897.22,-0.00494,-106.63,,,,,,,
9897.46,-0.00496,-106.25,,,,,,,
9897.96,-0.00501,-107.08,,,,,,,
9898.22,-0.00501,-103.74,,,,,,,
9898.57,-0.00496,-93.81,,,,,,,
9899.22,-0.00491,-83.14,,,,,,,
9899.29,-0.00491,-81.96,,,,,,,
9899.92,-0.00486,-70.81,,,,,,,
9900.22,-0.00481,-63.51,,,,,,,
9900.23,-0.00481,-63.23,,,,,,,
9900.96,-0.00476,-52.29,,,,,,,
9901.22,-0.00471,-45.64,,,,,,,
9901.24,-0.00471,-45.32,,,,,,,
9901.76,-0.00466,-40.98,,,,,,,
9902.22,-0.00461,-38.25,,,,,,,
9902.26,-0.00461,-38.08,,,,,,,
9902.98,-0.00456,-27.43,,,,,,,
9903.2,-0.00451,-21.36,,,,,,,
9903.22,-0.0045,-21.19,,,,,,,
9903.88,-0.00446,-17.87,,,,,,,
9904.22,-0.00441,-15.1,,,,,,,
9904.23,-0.00441,-15.03,,,,,,,
9904.96,-0.00436,-10.23,,,,,,,
9905.22,-0.00432,-6.66,,,,,,,
9905.35,-0.00431,-5.33,,,,,,,
9905.88,-0.00426,-0.98,,,,,,,
9906.22,-0.00422,2.34,,,,,,,
9906.36,-0.00421,3.58,,,,,,,
9907.1,-0.00416,12.54,,,,,,,
9907.22,-0.00413,14.29,,,,,,,
9907.48,-0.00411,14.33,,,,,,,
9907.87,-0.00406,14.23,,,,,,,
9908.22,-0.00405,12.42,,,,,,,
9908.62,-0.00401,14.91,,,,,,,
9909.0,-0.00396,21.05,,,,,,,
9909.22,-0.00394,23.11,,,,,,,
9909.78,-0.00391,29.34,,,,,,,
9910.22,-0.00386,34.97,,,,,,,
9910.28,-0.00386,35.58,,,,,,,
9910.82,-0.00381,42.0,,,,,,,
9911.07,-0.00375,47.33,,,,,,,
9911.22,-0.00373,49.98,,,,,,,
9911.39,-0.0037,52.35,,,,,,,
9911.88,-0.00365,57.85,,,,,,,
9912.22,-0.00362,59.66,,,,,,,
9912.43,-0.0036,61.68,,,,,,,
9912.85,-0.00355,64.59,,,,,,,
9913.22,-0.00351,65.5,,,,,,,
9913.34,-0.0035,65.67,,,,,,,
9913.91,-0.00345,68.51,,,,,,,
9914.22,-0.00342,71.06,,,,,,,
9914.32,-0.0034,71.58,,,,,,,
9914.89,-0.00335,72.61,,,,,,,
9915.22,-0.00332,75.14,,,,,,,
9915.43,-0.0033,76.82,,,,,,,
9915.99,-0.00325,82.31,,,,,,,
9916.22,-0.00323,84.9,,,,,,,
9916.47,-0.0032,87.17,,,,,,,
9916.94,-0.00315,89.92,,,,,,,
9917.22,-0.00313,92.09,,,,,,,
9917.42,-0.0031,93.32,,,,,,,
9917.95,-0.00305,96.69,,,,,,,
9918.22,-0.00302,97.78,,,,,,,
9918.38,-0.003,97.81,,,,,,,
9918.88,-0.00295,99.56,,,,,,,
9919.22,-0.00292,100.98,,,,,,,
9919.34,-0.0029,101.13,,,,,,,
9919.8,-0.00285,101.45,,,,,,,
9920.22,-0.00282,102.45,,,,,,,
9920.35,-0.0028,103.31,,,,,,,
9920.9,-0.00275,102.62,,,,,,,
9921.22,-0.00271,103.01,,,,,,,
9921.36,-0.0027,103.43,,,,,,,
9921.74,-0.00265,103.9,,,,,,,
9922.2,-0.0026,102.72,,,,,,,
9922.22,-0.0026,102.65,,,,,,,
9922.75,-0.00255,103.28,,,,,,,
9923.22,-0.00251,102.23,,,,,,,
9923.25,-0.0025,102.22,,,,,,,
9923.68,-0.00245,100.82,,,,,,,
9924.22,-0.00241,101.96,,,,,,,
9924.24,-0.0024,102.02,,,,,,,
9924.53,-0.00235,102.26,,,,,,,
9925.09,-0.0023,95.78,,,,,,,
9925.22,-0.00229,95.41,,,,,,,
9925.69,-0.00225,95.89,,,,,,,
9926.17,-0.0022,96.5,,,,,,,
9926.22,-0.0022,96.57,,,,,,,
9926.69,-0.00215,98.59,,,,,,,
9927.04,-0.0021,98.76,,,,,,,
9927.22,-0.00209,97.96,,,,,,,
9927.75,-0.00205,99.83,,,,,,,
9928.2,-0.002,102.76,,,,,,,
9928.22,-0.002,102.86,,,,,,,
9928.69,-0.00195,103.05,,,,,,,
9929.11,-0.0019,104.14,,,,,,,
9929.22,-0.00189,104.03,,,,,,,
9929.52,-0.00185,102.87,,,,,,,
9930.1,-0.0018,101.28,,,,,,,
9930.22,-0.00179,101.26,,,,,,,
9930.68,-0.00175,102.79,,,,,,,
9931.01,-0.0017,103.72,,,,,,,
9931.22,-0.00169,102.98,,,,,,,
9931.62,-0.00165,104.54,,,,,,,
9932.07,-0.0016,103.81,,,,,,,
9932.22,-0.00159,103.64,,,,,,,
9932.52,-0.00155,103.51,,,,,,,
9933.14,-0.0015,103.84,,,,,,,
9933.22,-0.00149,104.24,,,,,,,
9933.42,-0.00145,104.69,,,,,,,
9934.08,-0.0014,99.44,,,,,,,
9934.22,-0.00138,99.73,,,,,,,
9934.56,-0.00135,99.78,,,,,,,
9934.98,-0.0013,100.04,,,,,,,
9935.22,-0.00127,99.03,,,,,,,
9935.43,-0.00125,97.93,,,,,,,
9936.08,-0.0012,99.4,,,,,,,
9936.22,-0.00118,100.24,,,,,,,
9936.41,-0.00115,100.27,,,,,,,
9937.0,-0.0011,102.31,,,,,,,
9937.22,-0.00107,102.17,,,,,,,
9937.44,-0.00105,101.35,,,,,,,
9938.08,-0.001,101.89,,,,,,,
9938.22,-0.00098,102.6,,,,,,,
9938.45,-0.00095,102.77,,,,,,,
9939.01,-0.0009,104.68,,,,,,,
9939.22,-0.00087,103.8,,,,,,,
9939.55,-0.00085,101.98,,,,,,,
9939.93,-0.0008,102.75,,,,,,,
9940.22,-0.00078,102.32,,,,,,,
9940.48,-0.00075,102.73,,,,,,,
9940.93,-0.0007,100.38,,,,,,,
9941.22,-0.00068,100.36,,,,,,,
9941.54,-0.00065,101.97,,,,,,,
9942.0,-0.0006,104.58,,,,,,,
9942.22,-0.00057,105.05,,,,,,,
9942.41,-0.00055,104.07,,,,,,,
9943.0,-0.0005,103.96,,,,,,,
9943.22,-0.00048,104.32,,,,,,,
9943.51,-0.00045,105.32,,,,,,,
9943.85,-0.0004,104.75,,,,,,,
9944.22,-0.00035,101.4,,,,,,,
9944.34,-0.00035,100.15,,,,,,,
9944.92,-0.0003,99.24,,,,,,,
9945.22,-0.00028,99.84,,,,,,,
9945.44,-0.00025,100.43,,,,,,,
9945.86,-0.0002,100.78,,,,,,,
9946.22,-0.00018,99.8,,,,,,,
9946.6,-0.00015,102.57,,,,,,,
9946.99,-0.0001,106.18,,,,,,,
9947.22,-7e-05,105.93,,,,,,,
9947.54,-5e-05,105.68,,,,,,,
19748.45,-0.0,96.77,,,,,,,
19749.04,5e-05,98.26,,,,,,,
19749.22,7e-05,98.71,,,,,,,
19749.57,0.0001,98.72,,,,,,,
19750.01,0.00015,99.88,,,,,,,
19750.22,0.00016,100.3,,,,,,,
19750.57,0.0002,103.03,,,,,,,
19750.97,0.00025,102.74,,,,,,,
19751.22,0.00027,102.19,,,,,,,
19751.53,0.0003,102.67,,,,,,,
19752.07,0.00035,104.62,,,,,,,
19752.22,0.00036,105.01,,,,,,,
19752.65,0.0004,107.1,,,,,,,
19753.01,0.00045,109.37,,,,,,,
19753.22,0.00047,108.23,,,,,,,
19753.44,0.0005,107.69,,,,,,,
19753.77,0.00055,104.35,,,,,,,
19754.22,0.00058,100.05,,,,,,,
19754.4,0.0006,99.62,,,,,,,
19754.9,0.00065,98.05,,,,,,,
19755.22,0.00068,97.35,,,,,,,
19755.46,0.0007,96.92,,,,,,,
19756.02,0.00075,97.77,,,,,,,
19756.22,0.00077,98.62,,,,,,,
19756.51,0.0008,99.26,,,,,,,
19756.97,0.00085,100.52,,,,,,,
19757.22,0.00087,100.33,,,,,,,
19757.47,0.0009,100.53,,,,,,,
19757.98,0.00095,101.89,,,,,,,
19758.22,0.00098,101.4,,,,,,,
19758.51,0.001,100.41,,,,,,,
19759.16,0.00105,104.48,,,,,,,
19759.22,0.00106,104.95,,,,,,,
19759.55,0.0011,107.02,,,,,,,
19759.95,0.00115,107.53,,,,,,,
19760.22,0.00117,106.72,,,,,,,
19760.47,0.0012,106.71,,,,,,,
19760.89,0.00125,104.89,,,,,,,
19761.22,0.00128,102.95,,,,,,,
19761.46,0.0013,102.03,,,,,,,
19762.09,0.00135,104.12,,,,,,,
19762.22,0.00137,104.79,,,,,,,
19762.48,0.0014,106.1,,,,,,,
19763.14,0.00145,105.53,,,,,,,
19763.22,0.00146,106.13,,,,,,,
19763.42,0.0015,106.76,,,,,,,
19764.01,0.00155,106.31,,,,,,,
19764.22,0.00158,105.7,,,,,,,
19764.58,0.0016,105.8,,,,,,,
19764.89,0.00165,105.9,,,,,,,
19765.22,0.00168,104.37,,,,,,,
19765.43,0.0017,103.83,,,,,,,
19765.9,0.00175,102.02,,,,,,,
19766.22,0.00178,101.11,,,,,,,
19766.37,0.0018,100.66,,,,,,,
19766.83,0.00185,98.17,,,,,,,
19767.22,0.00189,95.74,,,,,,,
19767.48,0.0019,95.24,,,,,,,
19768.2,0.00195,99.58,,,,,,,
19768.22,0.00195,99.82,,,,,,,
19768.49,0.002,102.63,,,,,,,
19768.93,0.00205,101.54,,,,,,,
19769.22,0.00207,101.56,,,,,,,
19769.6,0.0021,103.55,,,,,,,
19769.96,0.00215,105.55,,,,,,,
19770.22,0.00217,105.81,,,,,,,
19770.48,0.0022,105.78,,,,,,,
19771.07,0.00225,106.79,,,,,,,
19771.22,0.00227,107.21,,,,,,,
19771.5,0.0023,107.22,,,,,,,
19772.02,0.00235,107.28,,,,,,,
19772.22,0.00238,107.33,,,,,,,
19772.38,0.0024,106.78,,,,,,,
19773.04,0.00245,106.0,,,,,,,
19773.22,0.00247,106.34,,,,,,,
19773.43,0.0025,106.01,,,,,,,
19773.98,0.00255,105.65,,,,,,,
19774.22,0.00258,105.07,,,,,,,
19774.4,0.0026,104.19,,,,,,,
19775.07,0.00265,104.17,,,,,,,
19775.22,0.00268,104.88,,,,,,,
19775.45,0.0027,104.78,,,,,,,
19775.99,0.00275,104.04,,,,,,,
19776.22,0.00278,103.87,,,,,,,
19776.38,0.0028,103.44,,,,,,,
19776.94,0.00285,105.01,,,,,,,
19777.22,0.00287,105.4,,,,,,,
19777.49,0.0029,105.65,,,,,,,
19777.85,0.00295,105.04,,,,,,,
19778.22,0.00297,103.2,,,,,,,
19778.43,0.003,103.15,,,,,,,
19778.95,0.00305,103.59,,,,,,,
19779.22,0.00308,103.3,,,,,,,
19779.43,0.0031,102.83,,,,,,,
19780.09,0.00315,104.68,,,,,,,
19780.22,0.00317,105.58,,,,,,,
19780.43,0.0032,106.25,,,,,,,
19781.0,0.00325,104.65,,,,,,,
19781.22,0.00327,105.38,,,,,,,
19781.51,0.0033,107.46,,,,,,,
19781.95,0.00335,106.5,,,,,,,
19782.22,0.00337,106.32,,,,,,,
19782.5,0.0034,107.02,,,,,,,
19783.07,0.00345,108.29,,,,,,,
19783.22,0.00347,108.93,,,,,,,
19783.46,0.0035,109.27,,,,,,,
19783.99,0.00355,108.57,,,,,,,
19784.22,0.00358,108.11,,,,,,,
19784.46,0.0036,107.22,,,,,,,
19784.89,0.00365,106.3,,,,,,,
19785.22,0.00367,105.28,,,,,,,
19785.52,0.0037,105.65,,,,,,,
19785.95,0.00375,105.93,,,,,,,
19786.22,0.00378,105.75,,,,,,,
19786.35,0.0038,105.23,,,,,,,
19786.93,0.00385,102.93,,,,,,,
19787.22,0.00389,102.58,,,,,,,
19787.59,0.0039,102.63,,,,,,,
19787.99,0.00395,104.6,,,,,,,
19788.22,0.00398,104.9,,,,,,,
19788.4,0.004,104.47,,,,,,,
19789.03,0.00405,103.95,,,,,,,
19789.22,0.00407,104.7,,,,,,,
19789.47,0.0041,105.42,,,,,,,
19789.84,0.00415,104.39,,,,,,,
19790.22,0.0042,101.33,,,,,,,
19790.3,0.0042,100.58,,,,,,,
19791.13,0.00425,100.78,,,,,,,
19791.22,0.00428,102.06,,,,,,,
19791.45,0.0043,102.35,,,,,,,
19791.99,0.00435,101.18,,,,,,,
19792.22,0.00438,100.98,,,,,,,
19792.45,0.0044,100.95,,,,,,,
19793.0,0.00445,100.29,,,,,,,
19793.22,0.00448,100.48,,,,,,,
19793.42,0.0045,99.95,,,,,,,
19794.02,0.00455,102.07,,,,,,,
19794.22,0.00457,102.53,,,,,,,
19794.58,0.0046,103.99,,,,,,,
19795.07,0.00465,106.14,,,,,,,
19795.22,0.00468,106.46,,,,,,,
19795.53,0.0047,106.89,,,,,,,
19796.05,0.00475,108.44,,,,,,,
19796.22,0.00479,108.5,,,,,,,
19796.44,0.0048,106.87,,,,,,,
19796.84,0.00485,104.37,,,,,,,
19797.22,0.00488,102.06,,,,,,,
19797.54,0.0049,103.69,,,,,,,
19798.05,0.00495,105.85,,,,,,,
19798.22,0.00498,106.25,,,,,,,
19798.53,0.005,105.92,,,,,,,
19799.22,0.00495,89.6,,,,,,,
19799.22,0.00495,89.55,,,,,,,
19799.68,0.0049,81.22,,,,,,,
19800.22,0.00486,73.82,,,,,,,
19800.32,0.00485,72.41,,,,,,,
19800.93,0.0048,62.34,,,,,,,
19801.22,0.00477,57.04,,,,,,,
19801.31,0.00475,55.42,,,,,,,
19801.9,0.0047,48.63,,,,,,,
19802.2,0.00465,44.11,,,,,,,
19802.22,0.00465,43.99,,,,,,,
19803.0,0.0046,34.72,,,,,,,
19803.22,0.00458,31.27,,,,,,,
19803.48,0.00455,27.42,,,,,,,
19803.89,0.0045,23.23,,,,,,,
19804.22,0.00447,21.66,,,,,,,
19804.42,0.00445,20.3,,,,,,,
19804.97,0.0044,15.58,,,,,,,
19805.22,0.00437,13.96,,,,,,,
19805.32,0.00435,13.55,,,,,,,
19805.95,0.0043,9.45,,,,,,,
19806.22,0.00429,7.52,,,,,,,
19806.47,0.00425,4.15,,,,,,,
19807.22,0.00423,2.46,,,,,,,
19807.64,0.0042,-2.72,,,,,,,
19807.91,0.00415,-10.23,,,,,,,
19808.22,0.00411,-14.61,,,,,,,
19808.3,0.0041,-15.11,,,,,,,
19808.76,0.00405,-17.04,,,,,,,
19809.22,0.00401,-20.54,,,,,,,
19809.28,0.004,-22.07,,,,,,,
19809.52,0.00395,-27.82,,,,,,,
19809.89,0.0039,-31.75,,,,,,,
19810.22,0.00387,-34.16,,,,,,,
19810.31,0.00385,-34.77,,,,,,,
19810.93,0.0038,-37.9,,,,,,,
19811.22,0.00378,-40.05,,,,,,,
19811.42,0.00375,-41.22,,,,,,,
19812.17,0.0037,-46.93,,,,,,,
19812.22,0.00369,-48.05,,,,,,,
19812.39,0.00365,-50.96,,,,,,,
19812.8,0.0036,-53.26,,,,,,,
19813.22,0.00358,-53.37,,,,,,,
19813.55,0.00355,-57.1,,,,,,,
19813.89,0.0035,-60.02,,,,,,,
19814.22,0.00348,-62.2,,,,,,,
19814.55,0.00345,-64.8,,,,,,,
19815.01,0.0034,-67.54,,,,,,,
19815.22,0.00337,-68.38,,,,,,,
19815.51,0.00335,-69.23,,,,,,,
19816.13,0.0033,-72.59,,,,,,,
19816.22,0.00329,-73.74,,,,,,,
19816.44,0.00325,-76.35,,,,,,,
19816.82,0.0032,-78.35,,,,,,,
19817.22,0.00317,-78.43,,,,,,,
19817.36,0.00315,-78.85,,,,,,,
19818.0,0.0031,-79.38,,,,,,,
19818.22,0.00307,-81.03,,,,,,,
19818.5,0.00305,-82.63,,,,,,,
19818.99,0.003,-86.05,,,,,,,
19819.22,0.00297,-87.38,,,,,,,
19819.4,0.00295,-87.91,,,,,,,
19819.88,0.0029,-88.38,,,,,,,
19820.22,0.00287,-88.5,,,,,,,
19820.44,0.00285,-89.38,,,,,,,
19820.94,0.0028,-90.67,,,,,,,
19821.22,0.00276,-91.46,,,,,,,
19821.35,0.00275,-91.46,,,,,,,
19821.89,0.0027,-90.75,,,,,,,
19822.22,0.00266,-91.03,,,,,,,
19822.39,0.00265,-91.27,,,,,,,
19822.92,0.0026,-94.67,,,,,,,
19823.22,0.00257,-95.65,,,,,,,
19823.36,0.00255,-95.88,,,,,,,
19823.85,0.0025,-96.97,,,,,,,
19824.22,0.00246,-97.26,,,,,,,
19824.3,0.00245,-97.16,,,,,,,
19824.77,0.0024,-95.82,,,,,,,
19825.22,0.00236,-94.72,,,,,,,
19825.27,0.00235,-94.59,,,,,,,
19825.87,0.0023,-95.43,,,,,,,
19826.22,0.00227,-97.28,,,,,,,
19826.39,0.00225,-98.29,,,,,,,
19826.91,0.0022,-100.92,,,,,,,
19827.22,0.00217,-102.14,,,,,,,
19827.39,0.00215,-102.63,,,,,,,
19827.71,0.0021,-103.09,,,,,,,
19828.22,0.00206,-101.87,,,,,,,
19828.34,0.00205,-101.91,,,,,,,
19828.71,0.002,-102.33,,,,,,,
19829.04,0.00195,-101.04,,,,,,,
19829.22,0.00193,-99.26,,,,,,,
19829.7,0.0019,-96.49,,,,,,,
19830.16,0.00185,-95.9,,,,,,,
19830.22,0.00185,-95.83,,,,,,,
19830.74,0.0018,-96.49,,,,,,,
19831.22,0.00177,-99.56,,,,,,,
19831.33,0.00175,-100.42,,,,,,,
19831.71,0.0017,-101.39,,,,,,,
19832.22,0.00165,-100.51,,,,,,,
19832.35,0.00165,-100.99,,,,,,,
19832.81,0.0016,-104.48,,,,,,,
19833.14,0.00155,-105.58,,,,,,,
19833.22,0.00154,-105.34,,,,,,,
19833.58,0.0015,-102.97,,,,,,,
19834.21,0.00145,-101.96,,,,,,,
19834.22,0.00145,-101.96,,,,,,,
19834.65,0.0014,-102.26,,,,,,,
19835.18,0.00135,-102.31,,,,,,,
19835.22,0.00135,-102.3,,,,,,,
19835.6,0.0013,-102.13,,,,,,,
19836.17,0.00125,-102.23,,,,,,,
19836.22,0.00124,-102.29,,,,,,,
19836.56,0.0012,-102.32,,,,,,,
19837.07,0.00115,-100.61,,,,,,,
19837.22,0.00113,-100.3,,,,,,,
19837.49,0.0011,-99.26,,,,,,,
19838.03,0.00105,-97.13,,,,,,,
19838.22,0.00103,-96.7,,,,,,,
19838.57,0.001,-96.2,,,,,,,
19839.15,0.00095,-97.82,,,,,,,
19839.22,0.00094,-98.21,,,,,,,
19839.69,0.0009,-100.53,,,,,,,
19840.15,0.00085,-102.5,,,,,,,
19840.22,0.00084,-102.7,,,,,,,
19840.59,0.0008,-102.76,,,,,,,
19841.08,0.00075,-101.29,,,,,,,
19841.22,0.00073,-101.16,,,,,,,
19841.5,0.0007,-100.5,,,,,,,
19842.13,0.00065,-100.38,,,,,,,
19842.22,0.00064,-100.71,,,,,,,
19842.58,0.0006,-101.36,,,,,,,
19843.07,0.00055,-101.12,,,,,,,
19843.22,0.00053,-101.0,,,,,,,
19843.46,0.0005,-100.55,,,,,,,
19844.14,0.00045,-98.06,,,,,,,
19844.22,0.00044,-98.43,,,,,,,
19844.53,0.0004,-99.34,,,,,,,
19845.02,0.00035,-99.28,,,,,,,
19845.22,0.00033,-99.09,,,,,,,
19845.52,0.0003,-99.47,,,,,,,
19846.11,0.00025,-97.82,,,,,,,
19846.22,0.00022,-98.05,,,,,,,
19846.41,0.0002,-97.42,,,,,,,
19846.89,0.00015,-95.89,,,,,,,
19847.22,0.00012,-94.21,,,,,,,
19847.44,0.0001,-93.77,,,,,,,
19848.16,5e-05,-94.05,,,,,,,
19848.22,4e-05,-94.67,,,,,,,
19848.7,-0.0,-99.26,,,,,,,
19849.0,-5e-05,-101.1,,,,,,,
19849.22,-7e-05,-101.15,,,,,,,
19849.75,-0.0001,-104.1,,,,,,,
19850.16,-0.00015,-107.06,,,,,,,
19850.22,-0.00016,-107.33,,,,,,,
19850.62,-0.0002,-108.66,,,,,,,
19850.95,-0.00025,-108.79,,,,,,,
19851.22,-0.00027,-107.45,,,,,,,
19851.59,-0.0003,-106.46,,,,,,,
19852.01,-0.00035,-106.45,,,,,,,
19852.22,-0.00038,-105.77,,,,,,,
19852.45,-0.0004,-104.89,,,,,,,
19852.89,-0.00045,-103.32,,,,,,,
19853.22,-0.00049,-102.2,,,,,,,
19853.34,-0.0005,-101.8,,,,,,,
19853.95,-0.00055,-99.88,,,,,,,
19854.22,-0.00059,-99.31,,,,,,,
19854.5,-0.0006,-98.76,,,,,,,
19855.01,-0.00065,-99.54,,,,,,,
19855.22,-0.00067,-99.8,,,,,,,
19855.67,-0.0007,-100.93,,,,,,,
19856.01,-0.00075,-102.23,,,,,,,
19856.22,-0.00078,-102.07,,,,,,,
19856.7,-0.0008,-102.01,,,,,,,
19857.04,-0.00085,-103.26,,,,,,,
19857.22,-0.00088,-103.12,,,,,,,
19857.38,-0.0009,-102.63,,,,,,,
19858.18,-0.00095,-101.37,,,,,,,
19858.22,-0.00096,-101.61,,,,,,,
19858.51,-0.001,-102.15,,,,,,,
19859.03,-0.00105,-101.26,,,,,,,
19859.22,-0.00107,-101.2,,,,,,,
19859.5,-0.0011,-100.93,,,,,,,
19859.87,-0.00115,-99.71,,,,,,,
19860.22,-0.00118,-98.71,,,,,,,
19860.49,-0.0012,-98.79,,,,,,,
19860.91,-0.00125,-97.97,,,,,,,
19861.22,-0.00127,-97.39,,,,,,,
19861.53,-0.0013,-97.73,,,,,,,
19862.1,-0.00135,-98.95,,,,,,,
19862.22,-0.00137,-99.39,,,,,,,
19862.48,-0.0014,-99.82,,,,,,,
19863.02,-0.00145,-99.37,,,,,,,
19863.22,-0.00147,-99.4,,,,,,,
19863.49,-0.0015,-99.96,,,,,,,
19864.05,-0.00155,-99.05,,,,,,,
19864.22,-0.00157,-99.26,,,,,,,
19864.58,-0.0016,-99.8,,,,,,,
19865.07,-0.00165,-101.52,,,,,,,
19865.22,-0.00167,-101.74,,,,,,,
19865.46,-0.0017,-101.76,,,,,,,
19866.0,-0.00175,-100.82,,,,,,,
19866.22,-0.00177,-100.41,,,,,,,
19866.71,-0.0018,-101.97,,,,,,,
19867.22,-0.00185,-103.21,,,,,,,
19867.27,-0.00185,-103.78,,,,,,,
19867.62,-0.0019,-106.99,,,,,,,
19868.0,-0.00195,-107.9,,,,,,,
19868.22,-0.00198,-106.84,,,,,,,
19868.55,-0.00201,-105.95,,,,,,,
19869.01,-0.00206,-104.69,,,,,,,
19869.22,-0.00207,-104.32,,,,,,,
19869.51,-0.00211,-104.65,,,,,,,
19870.08,-0.00216,-105.3,,,,,,,
19870.22,-0.00217,-105.55,,,,,,,
19870.49,-0.00221,-105.12,,,,,,,
19871.01,-0.00226,-105.45,,,,,,,
19871.22,-0.00228,-104.89,,,,,,,
19871.56,-0.00231,-104.25,,,,,,,
19872.06,-0.00236,-105.11,,,,,,,
19872.22,-0.00238,-105.23,,,,,,,
19872.79,-0.00241,-106.11,,,,,,,
19873.11,-0.00246,-108.88,,,,,,,
19873.22,-0.00248,-109.26,,,,,,,
19873.57,-0.00251,-107.65,,,,,,,
19874.05,-0.00256,-107.07,,,,,,,
19874.22,-0.00258,-106.91,,,,,,,
19874.46,-0.00261,-106.26,,,,,,,
19875.12,-0.00266,-106.53,,,,,,,
19875.22,-0.00266,-106.67,,,,,,,
19875.48,-0.00271,-107.98,,,,,,,
19876.05,-0.00276,-107.66,,,,,,,
19876.22,-0.00277,-107.71,,,,,,,
19876.48,-0.00281,-107.77,,,,,,,
19876.96,-0.00286,-105.96,,,,,,,
19877.22,-0.00288,-104.99,,,,,,,
19877.52,-0.00291,-104.5,,,,,,,
19878.01,-0.00296,-103.44,,,,,,,
19878.22,-0.00298,-103.32,,,,,,,
19878.49,-0.00301,-103.39,,,,,,,
19878.94,-0.00306,-102.62,,,,,,,
19879.22,-0.00308,-102.15,,,,,,,
19879.64,-0.00311,-102.42,,,,,,,
19880.13,-0.00316,-104.98,,,,,,,
19880.22,-0.00317,-105.33,,,,,,,
19880.52,-0.00321,-105.84,,,,,,,
19881.0,-0.00326,-105.98,,,,,,,
19881.22,-0.00328,-105.54,,,,,,,
19881.53,-0.00331,-105.29,,,,,,,
19882.04,-0.00336,-104.86,,,,,,,
19882.22,-0.00337,-105.0,,,,,,,
19882.53,-0.00341,-105.48,,,,,,,
19882.98,-0.00346,-104.95,,,,,,,
19883.22,-0.00348,-104.52,,,,,,,
19883.5,-0.00351,-103.67,,,,,,,
19883.95,-0.00356,-102.67,,,,,,,
19884.22,-0.00358,-102.14,,,,,,,
19884.57,-0.00361,-101.87,,,,,,,
19885.12,-0.00366,-104.26,,,,,,,
19885.22,-0.00367,-104.68,,,,,,,
19885.46,-0.00371,-104.62,,,,,,,
19886.08,-0.00376,-103.66,,,,,,,
19886.22,-0.00377,-103.95,,,,,,,
19886.52,-0.00381,-104.11,,,,,,,
19886.99,-0.00386,-104.11,,,,,,,
19887.22,-0.00388,-103.77,,,,,,,
19887.54,-0.00391,-103.66,,,,,,,
19888.05,-0.00396,-104.21,,,,,,,
19888.22,-0.00398,-104.29,,,,,,,
19888.69,-0.00401,-105.33,,,,,,,
19889.22,-0.00406,-109.14,,,,,,,
19889.23,-0.00406,-109.17,,,,,,,
19889.62,-0.00411,-110.37,,,,,,,
19890.17,-0.00416,-111.57,,,,,,,
19890.22,-0.00417,-111.74,,,,,,,
19890.67,-0.00421,-111.73,,,,,,,
19891.08,-0.00426,-112.04,,,,,,,
19891.22,-0.00428,-111.88,,,,,,,
19891.4,-0.00431,-111.23,,,,,,,
19891.84,-0.00436,-107.58,,,,,,,
19892.22,-0.00439,-104.36,,,,,,,
19892.59,-0.00441,-103.6,,,,,,,
19893.1,-0.00446,-104.85,,,,,,,
19893.22,-0.00447,-105.35,,,,,,,
19893.59,-0.00451,-107.09,,,,,,,
19894.19,-0.00456,-108.96,,,,,,,
19894.22,-0.00456,-109.13,,,,,,,
19894.53,-0.00461,-109.94,,,,,,,
19895.01,-0.00466,-108.63,,,,,,,
19895.22,-0.00468,-108.17,,,,,,,
19895.54,-0.00471,-108.0,,,,,,,
19896.09,-0.00476,-108.28,,,,,,,
19896.22,-0.00477,-108.51,,,,,,,
19896.57,-0.00481,-108.6,,,,,,,
19897.0,-0.00486,-108.01,,,,,,,
19897.22,-0.00488,-107.61,,,,,,,
19897.54,-0.00491,-107.4,,,,,,,
19898.04,-0.00496,-107.47,,,,,,,
19898.22,-0.00498,-107.45,,,,,,,
19898.51,-0.00501,-106.97,,,,,,,
19899.22,-0.00497,-92.12,,,,,,,
19899.31,-0.00496,-90.28,,,,,,,
19899.88,-0.00491,-76.66,,,,,,,
19900.22,-0.00487,-69.55,,,,,,,
19900.3,-0.00486,-68.2,,,,,,,
19900.77,-0.00481,-61.85,,,,,,,
19901.22,-0.00476,-58.02,,,,,,,
19901.23,-0.00476,-57.95,,,,,,,
19901.91,-0.00471,-51.08,,,,,,,
19902.22,-0.00469,-47.56,,,,,,,
19902.47,-0.00466,-42.6,,,,,,,
19902.94,-0.00461,-35.01,,,,,,,
19903.22,-0.00457,-32.12,,,,,,,
19903.38,-0.00456,-30.99,,,,,,,
19903.89,-0.00451,-26.96,,,,,,,
19904.22,-0.00448,-24.66,,,,,,,
19904.55,-0.00446,-20.76,,,,,,,
19904.94,-0.00441,-15.38,,,,,,,
19905.22,-0.00439,-12.23,,,,,,,
19905.67,-0.00436,-5.92,,,,,,,
19905.87,-0.00431,-1.07,,,,,,,
19906.22,-0.00428,1.47,,,,,,,
19906.49,-0.00426,3.77,,,,,,,
19907.2,-0.00421,10.38,,,,,,,
19907.22,-0.00421,10.77,,,,,,,
19907.98,-0.00416,14.1,,,,,,,
19908.22,-0.00415,15.94,,,,,,,
19908.48,-0.00411,22.62,,,,,,,
19908.65,-0.00406,27.96,,,,,,,
19909.22,-0.00401,32.14,,,,,,,
19909.24,-0.00401,32.27,,,,,,,
19909.9,-0.00396,36.05,,,,,,,
19910.22,-0.00392,40.26,,,,,,,
19910.32,-0.00391,41.98,,,,,,,
19910.62,-0.00386,48.49,,,,,,,
19910.96,-0.00381,51.64,,,,,,,
19911.22,-0.00378,53.49,,,,,,,
19911.42,-0.00376,54.41,,,,,,,
19911.94,-0.00371,56.18,,,,,,,
19912.22,-0.00368,57.7,,,,,,,
19912.5,-0.00366,59.81,,,,,,,
19912.94,-0.00361,62.69,,,,,,,
19913.22,-0.00358,64.11,,,,,,,
19913.51,-0.00356,66.02,,,,,,,
19913.95,-0.00351,69.59,,,,,,,
19914.22,-0.00348,70.88,,,,,,,
19914.52,-0.00346,73.26,,,,,,,
19915.02,-0.00341,76.19,,,,,,,
19915.22,-0.00339,77.93,,,,,,,
19915.42,-0.00336,79.44,,,,,,,
19915.87,-0.00331,80.21,,,,,,,
19916.22,-0.00327,80.02,,,,,,,
19916.42,-0.00326,80.09,,,,,,,
19916.9,-0.00321,81.52,,,,,,,
19917.22,-0.00318,82.92,,,,,,,
19917.54,-0.00316,85.49,,,,,,,
19917.93,-0.00311,87.4,,,,,,,
19918.22,-0.00307,88.69,,,,,,,
19918.46,-0.00306,88.82,,,,,,,
19918.82,-0.00301,89.91,,,,,,,
19919.22,-0.00297,89.66,,,,,,,
19919.39,-0.00296,90.2,,,,,,,
19919.96,-0.00291,93.84,,,,,,,
19920.22,-0.00288,95.5,,,,,,,
19920.41,-0.00286,96.49,,,,,,,
19920.83,-0.00281,97.47,,,,,,,
19921.22,-0.00277,97.82,,,,,,,
19921.32,-0.00276,97.91,,,,,,,
19921.85,-0.00271,98.09,,,,,,,
19922.22,-0.00266,97.51,,,,,,,
19922.3,-0.00266,97.35,,,,,,,
19922.76,-0.00261,97.51,,,,,,,
19923.22,-0.00256,96.92,,,,,,,
19923.28,-0.00256,96.94,,,,,,,
19923.87,-0.00251,97.72,,,,,,,
19924.22,-0.00246,98.14,,,,,,,
19924.4,-0.00246,98.5,,,,,,,
19924.76,-0.00241,99.87,,,,,,,
19925.21,-0.00236,100.36,,,,,,,
19925.22,-0.00235,100.36,,,,,,,
19925.66,-0.00231,99.28,,,,,,,
19926.17,-0.00226,97.31,,,,,,,
19926.22,-0.00225,97.17,,,,,,,
19926.75,-0.00221,97.69,,,,,,,
19927.21,-0.00216,99.03,,,,,,,
19927.22,-0.00215,98.99,,,,,,,
19927.72,-0.00211,99.17,,,,,,,
19928.13,-0.00205,99.6,,,,,,,
19928.22,-0.00204,99.38,,,,,,,
19928.62,-0.002,97.53,,,,,,,
19929.1,-0.00195,96.23,,,,,,,
19929.22,-0.00194,95.79,,,,,,,
19929.7,-0.0019,95.16,,,,,,,
19930.04,-0.00185,95.38,,,,,,,
19930.22,-0.00184,94.39,,,,,,,
19930.57,-0.0018,94.35,,,,,,,
19931.2,-0.00175,97.18,,,,,,,
19931.22,-0.00175,97.33,,,,,,,
19931.72,-0.0017,98.77,,,,,,,
19932.02,-0.00165,98.65,,,,,,,
19932.22,-0.00164,97.55,,,,,,,
19932.69,-0.0016,98.93,,,,,,,
19932.99,-0.00155,100.11,,,,,,,
19933.22,-0.00154,99.04,,,,,,,
19933.56,-0.0015,98.78,,,,,,,
19934.01,-0.00145,97.07,,,,,,,
19934.22,-0.00144,96.39,,,,,,,
19934.53,-0.0014,95.82,,,,,,,
19935.11,-0.00135,95.12,,,,,,,
19935.22,-0.00134,95.3,,,,,,,
19935.55,-0.0013,95.41,,,,,,,
19936.11,-0.00125,95.54,,,,,,,
19936.22,-0.00124,95.94,,,,,,,
19936.72,-0.0012,100.16,,,,,,,
19936.99,-0.00115,101.45,,,,,,,
19937.22,-0.00112,99.67,,,,,,,
19937.52,-0.0011,97.24,,,,,,,
19938.03,-0.00105,96.62,,,,,,,
19938.22,-0.00103,96.24,,,,,,,
19938.58,-0.001,96.06,,,,,,,
19939.18,-0.00095,98.51,,,,,,,
19939.22,-0.00095,98.82,,,,,,,
19939.67,-0.0009,100.71,,,,,,,
19940.01,-0.00085,101.83,,,,,,,
19940.22,-0.00083,101.02,,,,,,,
19940.69,-0.0008,102.2,,,,,,,
19941.07,-0.00075,104.44,,,,,,,
19941.22,-0.00073,104.45,,,,,,,
19941.58,-0.0007,103.09,,,,,,,
19942.01,-0.00065,102.63,,,,,,,
19942.22,-0.00063,101.88,,,,,,,
19942.52,-0.0006,101.42,,,,,,,
19943.04,-0.00055,100.73,,,,,,,
19943.22,-0.00053,100.63,,,,,,,
19943.52,-0.0005,100.53,,,,,,,
19944.08,-0.00045,103.47,,,,,,,
19944.22,-0.00043,103.69,,,,,,,
19944.58,-0.0004,104.39,,,,,,,
19945.08,-0.00035,105.29,,,,,,,
19945.22,-0.00035,105.6,,,,,,,
19945.51,-0.0003,107.02,,,,,,,
19946.02,-0.00025,105.01,,,,,,,
19946.22,-0.00023,104.41,,,,,,,
19946.41,-0.0002,103.34,,,,,,,
19947.03,-0.00015,100.9,,,,,,,
19947.22,-0.00014,101.07,,,,,,,
19947.54,-0.0001,101.79,,,,,,,
19947.97,-5e-05,103.25,,,,,,,
19948.22,-2e-05,102.49,,,,,,,
39749.84,1e-05,99.28,,,,,,,
39750.22,4e-05,101.27,,,,,,,
39750.35,6e-05,102.06,,,,,,,
39750.84,0.00011,103.29,,,,,,,
39751.22,0.00015,103.0,,,,,,,
39751.32,0.00016,103.03,,,,,,,
39751.74,0.00021,101.94,,,,,,,
39752.22,0.00024,100.4,,,,,,,
39752.39,0.00026,101.5,,,,,,,
39752.81,0.00031,101.98,,,,,,,
39753.22,0.00034,103.53,,,,,,,
39753.34,0.00036,103.78,,,,,,,
39753.73,0.00041,102.9,,,,,,,
39754.19,0.00046,100.89,,,,,,,
39754.22,0.00046,100.74,,,,,,,
39754.81,0.00051,95.95,,,,,,,
39755.22,0.00054,96.14,,,,,,,
39755.33,0.00056,96.86,,,,,,,
39755.88,0.00061,99.26,,,,,,,
39756.21,0.00066,100.8,,,,,,,
39756.22,0.00066,100.79,,,,,,,
39756.73,0.00071,98.74,,,,,,,
39757.18,0.00076,97.72,,,,,,,
39757.22,0.00077,97.6,,,,,,,
39757.76,0.00081,96.84,,,,,,,
39758.22,0.00086,98.09,,,,,,,
39758.28,0.00086,98.13,,,,,,,
39758.66,0.00091,98.43,,,,,,,
39759.22,0.00095,97.25,,,,,,,
39759.32,0.00096,97.97,,,,,,,
39759.77,0.00101,97.78,,,,,,,
39760.2,0.00106,97.47,,,,,,,
39760.22,0.00106,97.45,,,,,,,
39760.76,0.00111,97.4,,,,,,,
39761.13,0.00116,96.37,,,,,,,
39761.22,0.00117,95.81,,,,,,,
39761.68,0.00121,93.51,,,,,,,
39762.22,0.00126,93.1,,,,,,,
39762.25,0.00126,93.08,,,,,,,
39762.76,0.00131,93.43,,,,,,,
39763.22,0.00136,93.58,,,,,,,
39763.29,0.00136,93.7,,,,,,,
39763.79,0.00141,96.26,,,,,,,
39764.22,0.00146,97.49,,,,,,,
39764.25,0.00146,97.52,,,,,,,
39764.86,0.00151,98.39,,,,,,,
39765.22,0.00155,99.67,,,,,,,
39765.29,0.00156,99.81,,,,,,,
39765.76,0.00161,99.07,,,,,,,
39766.22,0.00165,99.36,,,,,,,
39766.36,0.00166,99.91,,,,,,,
39766.77,0.00171,100.51,,,,,,,
39767.22,0.00175,100.61,,,,,,,
39767.27,0.00176,100.67,,,,,,,
39767.87,0.00181,100.49,,,,,,,
39768.22,0.00184,102.55,,,,,,,
39768.38,0.00186,103.57,,,,,,,
39768.82,0.00191,104.88,,,,,,,
39769.22,0.00196,103.93,,,,,,,
39769.28,0.00196,103.79,,,,,,,
39769.79,0.00201,102.55,,,,,,,
39770.22,0.00205,102.53,,,,,,,
39770.36,0.00206,102.94,,,,,,,
39770.79,0.00211,103.78,,,,,,,
39771.22,0.00215,102.61,,,,,,,
39771.3,0.00216,102.71,,,,,,,
39771.78,0.00221,102.9,,,,,,,
39772.22,0.00226,102.72,,,,,,,
39772.29,0.00226,102.77,,,,,,,
39772.79,0.00231,102.24,,,,,,,
39773.22,0.00235,100.64,,,,,,,
39773.35,0.00236,101.1,,,,,,,
39773.87,0.00241,101.5,,,,,,,
39774.21,0.00246,102.66,,,,,,,
39774.22,0.00246,102.59,,,,,,,
39774.68,0.00251,100.96,,,,,,,
39775.14,0.00256,98.52,,,,,,,
39775.22,0.00257,98.07,,,,,,,
39775.74,0.00261,96.48,,,,,,,
39776.22,0.00266,96.73,,,,,,,
39776.36,0.00266,97.12,,,,,,,
39776.69,0.00271,98.32,,,,,,,
39777.22,0.00276,97.1,,,,,,,
39777.22,0.00276,97.1,,,,,,,
39777.75,0.00281,98.41,,,,,,,
39778.22,0.00286,98.5,,,,,,,
39778.33,0.00286,98.69,,,,,,,
39778.84,0.00291,100.27,,,,,,,
39779.22,0.00296,101.89,,,,,,,
39779.22,0.00296,101.87,,,,,,,
39779.91,0.00301,101.71,,,,,,,
39780.22,0.00305,103.02,,,,,,,
39780.36,0.00306,103.72,,,,,,,
39780.71,0.00311,103.25,,,,,,,
39781.22,0.00315,102.74,,,,,,,
39781.33,0.00316,103.18,,,,,,,
39781.72,0.00321,103.76,,,,,,,
39782.22,0.00325,102.21,,,,,,,
39782.34,0.00326,102.58,,,,,,,
39782.8,0.00331,103.65,,,,,,,
39783.22,0.00336,102.66,,,,,,,
39783.26,0.00336,102.58,,,,,,,
39783.73,0.00341,101.02,,,,,,,
39784.22,0.00346,102.14,,,,,,,
39784.28,0.00346,102.29,,,,,,,
39784.78,0.00351,103.14,,,,,,,
39785.22,0.00356,100.78,,,,,,,
39785.24,0.00356,100.69,,,,,,,
39785.79,0.00361,101.61,,,,,,,
39786.22,0.00365,101.9,,,,,,,
39786.33,0.00366,102.21,,,,,,,
39786.8,0.00371,104.02,,,,,,,
39787.22,0.00375,104.46,,,,,,,
39787.33,0.00376,104.86,,,,,,,
39787.82,0.00381,104.99,,,,,,,
39788.22,0.00386,104.45,,,,,,,
39788.58,0.00391,102.68,,,,,,,
39789.18,0.00396,97.34,,,,,,,
39789.22,0.00397,97.1,,,,,,,
39789.87,0.00401,97.63,,,,,,,
39790.22,0.00406,98.79,,,,,,,
39790.25,0.00406,98.73,,,,,,,
39790.75,0.00412,99.91,,,,,,,
39791.22,0.00415,100.57,,,,,,,
39791.4,0.00417,101.98,,,,,,,
39791.75,0.00422,103.34,,,,,,,
39792.22,0.00426,104.06,,,,,,,
39792.26,0.00427,104.1,,,,,,,
39792.66,0.00432,101.76,,,,,,,
39793.22,0.00436,101.65,,,,,,,
39793.32,0.00437,101.91,,,,,,,
39793.76,0.00442,103.15,,,,,,,
39794.22,0.00446,102.85,,,,,,,
39794.24,0.00447,102.83,,,,,,,
39794.87,0.00452,103.8,,,,,,,
39795.22,0.00456,104.91,,,,,,,
39795.27,0.00457,104.91,,,,,,,
39795.83,0.00462,103.16,,,,,,,
39796.22,0.00466,104.35,,,,,,,
39796.29,0.00467,104.48,,,,,,,
39796.77,0.00472,103.29,,,,,,,
39797.22,0.00475,104.09,,,,,,,
39797.37,0.00477,104.82,,,,,,,
39797.75,0.00482,105.17,,,,,,,
39798.12,0.00487,103.07,,,,,,,
39798.22,0.00488,102.07,,,,,,,
39798.77,0.00492,96.7,,,,,,,
39799.22,0.00495,97.93,,,,,,,
39799.32,0.00497,98.47,,,,,,,
39800.22,0.00496,91.6,,,,,,,
39800.93,0.00492,79.79,,,,,,,
39801.22,0.00489,73.25,,,,,,,
39801.5,0.00487,67.3,,,,,,,
39801.91,0.00482,59.62,,,,,,,
39802.22,0.00479,55.6,,,,,,,
39802.42,0.00477,53.22,,,,,,,
39803.08,0.00472,43.28,,,,,,,
39803.22,0.00469,40.54,,,,,,,
39803.43,0.00467,37.63,,,,,,,
39804.03,0.00462,32.73,,,,,,,
39804.22,0.00459,30.9,,,,,,,
39804.38,0.00457,29.86,,,,,,,
39805.07,0.00452,22.49,,,,,,,
39805.22,0.00449,20.53,,,,,,,
39805.46,0.00447,18.34,,,,,,,
39805.83,0.00442,16.17,,,,,,,
39806.22,0.0044,15.79,,,,,,,
39806.67,0.00437,9.04,,,,,,,
39807.0,0.00432,4.56,,,,,,,
39807.22,0.00428,3.49,,,,,,,
39807.37,0.00427,3.62,,,,,,,
39808.22,0.00422,4.1,,,,,,,
39808.26,0.00422,3.93,,,,,,,
39809.01,0.00417,-0.81,,,,,,,
39809.22,0.00414,-2.96,,,,,,,
39809.38,0.00412,-6.86,,,,,,,
39809.59,0.00407,-10.99,,,,,,,
39810.15,0.00401,-11.97,,,,,,,
39810.22,0.00401,-12.16,,,,,,,
39810.68,0.00396,-16.11,,,,,,,
39810.95,0.00391,-21.65,,,,,,,
39811.22,0.00389,-23.87,,,,,,,
39811.45,0.00386,-25.41,,,,,,,
39811.92,0.00381,-27.85,,,,,,,
39812.22,0.00379,-29.15,,,,,,,
39812.64,0.00376,-33.54,,,,,,,
39813.1,0.00371,-40.6,,,,,,,
39813.22,0.0037,-42.06,,,,,,,
39813.46,0.00366,-44.65,,,,,,,
39813.78,0.00361,-45.79,,,,,,,
39814.22,0.0036,-45.18,,,,,,,
39814.59,0.00356,-47.96,,,,,,,
39815.05,0.00351,-53.04,,,,,,,
39815.22,0.0035,-54.76,,,,,,,
39815.52,0.00346,-56.9,,,,,,,
39816.08,0.00341,-60.66,,,,,,,
39816.22,0.0034,-61.55,,,,,,,
39816.52,0.00336,-63.17,,,,,,,
39816.99,0.00331,-65.0,,,,,,,
39817.22,0.00328,-65.64,,,,,,,
39817.62,0.00326,-66.94,,,,,,,
39818.03,0.00321,-68.61,,,,,,,
39818.22,0.00319,-69.31,,,,,,,
39818.59,0.00316,-70.62,,,,,,,
39819.07,0.00311,-72.26,,,,,,,
39819.22,0.0031,-72.84,,,,,,,
39819.62,0.00306,-78.12,,,,,,,
39819.95,0.00301,-81.21,,,,,,,
39820.22,0.00298,-80.46,,,,,,,
39820.37,0.00296,-79.84,,,,,,,
39820.96,0.00291,-80.88,,,,,,,
39821.22,0.00288,-81.2,,,,,,,
39821.55,0.00286,-81.41,,,,,,,
39821.97,0.00281,-82.91,,,,,,,
39822.22,0.0028,-83.85,,,,,,,
39822.47,0.00276,-85.34,,,,,,,
39823.14,0.00271,-88.16,,,,,,,
39823.22,0.0027,-89.07,,,,,,,
39823.36,0.00266,-90.11,,,,,,,
39823.9,0.00261,-88.04,,,,,,,
39824.22,0.00259,-87.74,,,,,,,
39824.36,0.00256,-87.87,,,,,,,
39824.95,0.00251,-89.42,,,,,,,
39825.22,0.00248,-90.37,,,,,,,
39825.43,0.00246,-91.04,,,,,,,
39825.87,0.00241,-91.91,,,,,,,
39826.22,0.00237,-90.93,,,,,,,
39826.28,0.00236,-90.74,,,,,,,
39826.89,0.00231,-89.75,,,,,,,
39827.22,0.00229,-91.2,,,,,,,
39827.49,0.00226,-93.21,,,,,,,
39828.0,0.00221,-97.41,,,,,,,
39828.22,0.00219,-98.56,,,,,,,
39828.41,0.00216,-99.21,,,,,,,
39828.78,0.00211,-98.89,,,,,,,
39829.22,0.00209,-98.12,,,,,,,
39829.43,0.00206,-99.18,,,,,,,
39829.74,0.00201,-99.53,,,,,,,
39830.18,0.00196,-95.79,,,,,,,
39830.22,0.00196,-95.28,,,,,,,
39830.71,0.00191,-93.2,,,,,,,
39831.2,0.00186,-92.16,,,,,,,
39831.22,0.00186,-92.1,,,,,,,
39831.68,0.00181,-91.41,,,,,,,
39832.18,0.00176,-89.94,,,,,,,
39832.22,0.00176,-89.83,,,,,,,
39832.71,0.00171,-88.8,,,,,,,
39833.22,0.00166,-88.08,,,,,,,
39833.23,0.00166,-88.05,,,,,,,
39833.83,0.00161,-90.19,,,,,,,
39834.22,0.00157,-92.28,,,,,,,
39834.36,0.00156,-92.94,,,,,,,
39834.69,0.00151,-94.75,,,,,,,
39835.22,0.00148,-95.22,,,,,,,
39835.44,0.00146,-97.23,,,,,,,
39835.82,0.00141,-98.94,,,,,,,
39836.22,0.00136,-99.94,,,,,,,
39836.24,0.00136,-99.95,,,,,,,
39836.69,0.00131,-98.69,,,,,,,
39837.15,0.00126,-97.43,,,,,,,
39837.22,0.00125,-97.18,,,,,,,
39837.67,0.00121,-96.05,,,,,,,
39838.22,0.00117,-98.0,,,,,,,
39838.28,0.00116,-98.31,,,,,,,
39838.75,0.00111,-99.15,,,,,,,
39839.22,0.00106,-99.71,,,,,,,
39839.22,0.00106,-99.7,,,,,,,
39839.66,0.00101,-98.7,,,,,,,
39840.22,0.00096,-98.34,,,,,,,
39840.23,0.00096,-98.29,,,,,,,
39840.68,0.00091,-98.23,,,,,,,
39841.09,0.00086,-97.89,,,,,,,
39841.22,0.00085,-97.38,,,,,,,
39841.58,0.00081,-96.49,,,,,,,
39842.16,0.00076,-94.31,,,,,,,
39842.22,0.00075,-94.33,,,,,,,
39842.68,0.00071,-95.01,,,,,,,
39843.22,0.00066,-95.27,,,,,,,
39843.29,0.00066,-95.69,,,,,,,
39843.83,0.00061,-99.54,,,,,,,
39844.17,0.00056,-101.07,,,,,,,
39844.22,0.00055,-101.15,,,,,,,
39844.57,0.00051,-100.6,,,,,,,
39845.22,0.00046,-99.2,,,,,,,
39845.23,0.00046,-99.17,,,,,,,
39845.64,0.00041,-99.88,,,,,,,
39846.22,0.00036,-99.73,,,,,,,
39846.23,0.00036,-99.69,,,,,,,
39846.69,0.00031,-100.2,,,,,,,
39847.22,0.00026,-101.36,,,,,,,
39847.23,0.00026,-101.33,,,,,,,
39847.71,0.00021,-102.55,,,,,,,
39848.11,0.00016,-102.59,,,,,,,
39848.22,0.00015,-102.29,,,,,,,
39848.64,0.00011,-101.36,,,,,,,
39849.05,6e-05,-100.56,,,,,,,
39849.22,3e-05,-99.78,,,,,,,
39849.49,1e-05,-97.84,,,,,,,
39849.93,-4e-05,-95.91,,,,,,,
39850.22,-7e-05,-93.87,,,,,,,
39850.59,-9e-05,-92.26,,,,,,,
39851.1,-0.00014,-93.32,,,,,,,
39851.22,-0.00016,-93.55,,,,,,,
39851.63,-0.00019,-93.99,,,,,,,
39852.09,-0.00024,-94.74,,,,,,,
39852.22,-0.00025,-94.92,,,,,,,
39852.6,-0.00029,-94.79,,,,,,,
39852.96,-0.00034,-94.54,,,,,,,
39853.22,-0.00036,-93.35,,,,,,,
39853.62,-0.00039,-94.52,,,,,,,
39854.13,-0.00044,-95.67,,,,,,,
39854.22,-0.00046,-95.93,,,,,,,
39854.66,-0.00049,-96.12,,,,,,,
39855.14,-0.00054,-97.73,,,,,,,
39855.22,-0.00055,-97.86,,,,,,,
39855.62,-0.00059,-97.78,,,,,,,
39856.09,-0.00064,-98.05,,,,,,,
39856.22,-0.00065,-97.98,,,,,,,
39856.58,-0.00069,-97.48,,,,,,,
39857.03,-0.00074,-96.95,,,,,,,
39857.22,-0.00075,-96.77,,,,,,,
39857.68,-0.00079,-98.08,,,,,,,
39858.22,-0.00084,-101.12,,,,,,,
39858.27,-0.00084,-101.52,,,,,,,
39858.71,-0.00089,-103.84,,,,,,,
39859.13,-0.00094,-105.16,,,,,,,
39859.22,-0.00095,-105.28,,,,,,,
39859.55,-0.00099,-105.11,,,,,,,
39860.09,-0.00104,-103.9,,,,,,,
39860.22,-0.00106,-103.79,,,,,,,
39860.63,-0.00109,-102.61,,,,,,,
39861.09,-0.00114,-101.53,,,,,,,
39861.22,-0.00115,-101.4,,,,,,,
39861.55,-0.00119,-101.19,,,,,,,
39862.03,-0.00124,-99.75,,,,,,,
39862.22,-0.00126,-99.01,,,,,,,
39862.55,-0.00129,-98.99,,,,,,,
39863.03,-0.00134,-97.75,,,,,,,
39863.22,-0.00137,-97.2,,,,,,,
39863.55,-0.00139,-96.13,,,,,,,
39864.14,-0.00144,-97.02,,,,,,,
39864.22,-0.00145,-97.41,,,,,,,
39864.65,-0.00149,-98.8,,,,,,,
39865.21,-0.00154,-101.04,,,,,,,
39865.22,-0.00154,-101.1,,,,,,,
39865.64,-0.00159,-102.13,,,,,,,
39866.08,-0.00164,-101.88,,,,,,,
39866.22,-0.00165,-101.6,,,,,,,
39866.65,-0.00169,-101.6,,,,,,,
39867.04,-0.00174,-101.78,,,,,,,
39867.22,-0.00176,-101.0,,,,,,,
39867.5,-0.00179,-99.87,,,,,,,
39868.16,-0.00184,-98.37,,,,,,,
39868.22,-0.00185,-98.54,,,,,,,
39868.59,-0.00189,-99.46,,,,,,,
39869.18,-0.00194,-99.59,,,,,,,
39869.22,-0.00195,-99.84,,,,,,,
39869.44,-0.00199,-100.26,,,,,,,
39870.0,-0.00204,-96.97,,,,,,,
39870.22,-0.00207,-96.47,,,,,,,
39870.46,-0.00209,-95.94,,,,,,,
39871.06,-0.00214,-96.86,,,,,,,
39871.22,-0.00216,-96.87,,,,,,,
39871.71,-0.00219,-98.27,,,,,,,
39872.11,-0.00224,-99.88,,,,,,,
39872.22,-0.00226,-100.01,,,,,,,
39872.53,-0.00229,-99.71,,,,,,,
39873.11,-0.00234,-98.63,,,,,,,
39873.22,-0.00235,-98.84,,,,,,,
39873.55,-0.00239,-98.97,,,,,,,
39874.22,-0.00244,-98.0,,,,,,,
39874.67,-0.00249,-100.13,,,,,,,
39875.19,-0.00254,-101.86,,,,,,,
39875.22,-0.00255,-101.97,,,,,,,
39875.78,-0.00259,-104.28,,,,,,,
39876.09,-0.00264,-105.23,,,,,,,
39876.22,-0.00266,-105.24,,,,,,,
39876.67,-0.00269,-104.38,,,,,,,
39877.13,-0.00274,-104.44,,,,,,,
39877.22,-0.00275,-104.42,,,,,,,
39877.68,-0.00279,-104.37,,,,,,,
39878.17,-0.00284,-105.7,,,,,,,
39878.22,-0.00285,-105.81,,,,,,,
39878.68,-0.00289,-106.33,,,,,,,
39879.13,-0.00294,-106.32,,,,,,,
39879.22,-0.00295,-105.74,,,,,,,
39879.57,-0.00299,-105.66,,,,,,,
39880.09,-0.00304,-103.97,,,,,,,
39880.22,-0.00305,-103.78,,,,,,,
39880.64,-0.00309,-103.85,,,,,,,
39881.02,-0.00314,-103.58,,,,,,,
39881.22,-0.00317,-102.77,,,,,,,
39881.46,-0.00319,-101.85,,,,,,,
39881.94,-0.00324,-99.35,,,,,,,
39882.22,-0.00325,-98.74,,,,,,,
39882.61,-0.00329,-100.64,,,,,,,
39883.01,-0.00334,-100.49,,,,,,,
39883.22,-0.00337,-99.88,,,,,,,
39883.48,-0.00339,-99.21,,,,,,,
39884.04,-0.00344,-98.44,,,,,,,
39884.22,-0.00346,-98.43,,,,,,,
39884.55,-0.00349,-98.17,,,,,,,
39885.09,-0.00354,-98.62,,,,,,,
39885.22,-0.00356,-99.02,,,,,,,
39885.65,-0.00359,-98.47,,,,,,,
39886.03,-0.00364,-99.71,,,,,,,
39886.22,-0.00367,-99.35,,,,,,,
39886.53,-0.00369,-98.65,,,,,,,
39887.18,-0.00375,-99.51,,,,,,,
39887.22,-0.00375,-99.63,,,,,,,
39887.57,-0.0038,-100.71,,,,,,,
39888.18,-0.00385,-101.4,,,,,,,
39888.22,-0.00385,-101.65,,,,,,,
39888.65,-0.0039,-103.2,,,,,,,
39889.12,-0.00395,-103.7,,,,,,,
39889.22,-0.00396,-103.7,,,,,,,
39889.64,-0.004,-104.24,,,,,,,
39890.22,-0.00405,-105.02,,,,,,,
39890.22,-0.00405,-105.02,,,,,,,
39890.59,-0.0041,-106.4,,,,,,,
39891.11,-0.00415,-105.26,,,,,,,
39891.22,-0.00415,-105.2,,,,,,,
39891.62,-0.0042,-105.74,,,,,,,
39892.0,-0.00425,-105.07,,,,,,,
39892.22,-0.00427,-104.22,,,,,,,
39892.57,-0.0043,-103.09,,,,,,,
39893.22,-0.00434,-103.29,,,,,,,
39893.27,-0.00435,-103.63,,,,,,,
39893.65,-0.0044,-105.78,,,,,,,
39894.04,-0.00445,-106.22,,,,,,,
39894.22,-0.00447,-105.69,,,,,,,
39894.43,-0.0045,-104.62,,,,,,,
39895.19,-0.00455,-102.8,,,,,,,
39895.22,-0.00455,-102.89,,,,,,,
39895.7,-0.0046,-105.4,,,,,,,
39896.08,-0.00465,-106.28,,,,,,,
39896.22,-0.00466,-106.22,,,,,,,
39896.7,-0.0047,-107.09,,,,,,,
39897.09,-0.00475,-107.13,,,,,,,
39897.22,-0.00476,-106.97,,,,,,,
39897.52,-0.0048,-106.42,,,,,,,
39897.91,-0.00485,-104.76,,,,,,,
39898.22,-0.00485,-102.97,,,,,,,
39898.76,-0.0049,-103.75,,,,,,,
39899.22,-0.00494,-107.1,,,,,,,
39899.24,-0.00495,-107.19,,,,,,,
39899.69,-0.005,-108.8,,,,,,,
39900.22,-0.00499,-98.88,,,,,,,
39900.47,-0.00495,-92.52,,,,,,,
39901.11,-0.0049,-82.29,,,,,,,
39901.22,-0.00489,-80.74,,,,,,,
39901.7,-0.00485,-71.86,,,,,,,
39902.12,-0.0048,-63.65,,,,,,,
39902.22,-0.00478,-62.21,,,,,,,
39902.73,-0.00475,-55.8,,,,,,,
39903.1,-0.0047,-51.64,,,,,,,
39903.22,-0.00468,-50.75,,,,,,,
39903.57,-0.00465,-48.23,,,,,,,
39904.19,-0.0046,-44.01,,,,,,,
39904.22,-0.00459,-43.74,,,,,,,
39904.82,-0.00455,-38.56,,,,,,,
39905.18,-0.0045,-32.85,,,,,,,
39905.22,-0.00449,-32.43,,,,,,,
39905.91,-0.00445,-24.53,,,,,,,
39906.22,-0.00441,-17.89,,,,,,,
39906.33,-0.0044,-15.47,,,,,,,
39906.72,-0.00435,-9.82,,,,,,,
39907.22,-0.0043,-4.73,,,,,,,
39907.28,-0.0043,-4.13,,,,,,,
39907.84,-0.00425,1.26,,,,,,,
39908.22,-0.00421,4.68,,,,,,,
39908.34,-0.0042,5.73,,,,,,,
39908.84,-0.00415,9.35,,,,,,,
39909.22,-0.0041,11.49,,,,,,,
39909.28,-0.0041,11.67,,,,,,,
39910.18,-0.00404,12.94,,,,,,,
39910.22,-0.00404,13.22,,,,,,,
39910.83,-0.00399,19.41,,,,,,,
39911.0,-0.00394,25.85,,,,,,,
39911.22,-0.00391,26.98,,,,,,,
39911.57,-0.00389,27.36,,,,,,,
39912.17,-0.00384,34.48,,,,,,,
39912.22,-0.00384,35.11,,,,,,,
39912.61,-0.00379,41.83,,,,,,,
39912.82,-0.00374,45.24,,,,,,,
39913.22,-0.0037,47.43,,,,,,,
39913.24,-0.00369,47.47,,,,,,,
39913.78,-0.00364,50.98,,,,,,,
39914.22,-0.00361,54.7,,,,,,,
39914.27,-0.00359,55.17,,,,,,,
39914.8,-0.00354,57.01,,,,,,,
39915.22,-0.00351,61.18,,,,,,,
39915.33,-0.00349,62.65,,,,,,,
39915.73,-0.00344,65.82,,,,,,,
39916.22,-0.00341,68.74,,,,,,,
39916.33,-0.00339,69.38,,,,,,,
39916.82,-0.00334,72.18,,,,,,,
39917.22,-0.00332,74.5,,,,,,,
39917.39,-0.00329,76.86,,,,,,,
39917.78,-0.00324,80.44,,,,,,,
39918.18,-0.00319,82.65,,,,,,,
39918.22,-0.00319,82.75,,,,,,,
39918.86,-0.00314,82.53,,,,,,,
39919.16,-0.00309,84.25,,,,,,,
39919.22,-0.00309,84.11,,,,,,,
39919.68,-0.00304,83.52,,,,,,,
39920.22,-0.00299,85.05,,,,,,,
39920.8,-0.00294,87.64,,,,,,,
39921.22,-0.0029,88.73,,,,,,,
39921.27,-0.00289,88.83,,,,,,,
39921.71,-0.00284,91.43,,,,,,,
39922.22,-0.00279,92.36,,,,,,,
39922.25,-0.00279,92.43,,,,,,,
39922.71,-0.00274,95.37,,,,,,,
39923.11,-0.00269,95.1,,,,,,,
39923.22,-0.00268,94.89,,,,,,,
39923.58,-0.00264,94.52,,,,,,,
39924.11,-0.00259,94.2,,,,,,,
39924.22,-0.00257,94.18,,,,,,,
39924.65,-0.00254,94.15,,,,,,,
39925.05,-0.00249,94.75,,,,,,,
39925.22,-0.00247,94.09,,,,,,,
39925.51,-0.00244,92.8,,,,,,,
39926.1,-0.00239,92.32,,,,,,,
39926.22,-0.00238,92.77,,,,,,,
39926.55,-0.00234,93.64,,,,,,,
39927.08,-0.00229,95.11,,,,,,,
39927.22,-0.00227,95.32,,,,,,,
39927.54,-0.00224,96.21,,,,,,,
39927.91,-0.00219,95.56,,,,,,,
39928.22,-0.00217,94.19,,,,,,,
39928.57,-0.00214,94.04,,,,,,,
39929.01,-0.00209,94.67,,,,,,,
39929.22,-0.00207,94.82,,,,,,,
39929.58,-0.00204,96.13,,,,,,,
39929.94,-0.00199,96.95,,,,,,,
39930.22,-0.00196,94.06,,,,,,,
39930.55,-0.00194,93.87,,,,,,,
39931.06,-0.00189,95.98,,,,,,,
39931.22,-0.00187,96.68,,,,,,,
39931.47,-0.00184,97.07,,,,,,,
39931.85,-0.00179,95.78,,,,,,,
39932.22,-0.00176,93.41,,,,,,,
39932.46,-0.00174,93.19,,,,,,,
39932.91,-0.00169,92.96,,,,,,,
39933.22,-0.00166,92.38,,,,,,,
39933.47,-0.00164,92.42,,,,,,,
39933.97,-0.00159,93.66,,,,,,,
39934.22,-0.00157,94.65,,,,,,,
39934.43,-0.00154,95.05,,,,,,,
39935.01,-0.00149,96.94,,,,,,,
39935.22,-0.00147,98.13,,,,,,,
39935.43,-0.00144,98.6,,,,,,,
39935.94,-0.00139,98.03,,,,,,,
39936.22,-0.00137,98.58,,,,,,,
39936.51,-0.00134,99.84,,,,,,,
39936.96,-0.00129,100.33,,,,,,,
39937.22,-0.00127,101.04,,,,,,,
39937.42,-0.00124,101.69,,,,,,,
39937.85,-0.00119,100.71,,,,,,,
39938.22,-0.00115,97.73,,,,,,,
39938.32,-0.00114,97.16,,,,,,,
39938.75,-0.00109,95.65,,,,,,,
39939.18,-0.00104,93.26,,,,,,,
39939.22,-0.00103,92.95,,,,,,,
39939.73,-0.00099,87.96,,,,,,,
39940.22,-0.00096,87.29,,,,,,,
39940.38,-0.00094,88.33,,,,,,,
39940.82,-0.00089,90.03,,,,,,,
39941.22,-0.00085,90.36,,,,,,,
39941.41,-0.00084,91.09,,,,,,,
39941.91,-0.00079,92.96,,,,,,,
39942.22,-0.00076,94.37,,,,,,,
39942.35,-0.00074,94.95,,,,,,,
39942.91,-0.00069,95.29,,,,,,,
39943.22,-0.00065,95.83,,,,,,,
39943.42,-0.00064,96.12,,,,,,,
39943.93,-0.00059,98.54,,,,,,,
39944.22,-0.00056,99.7,,,,,,,
39944.38,-0.00054,100.17,,,,,,,
39944.89,-0.00049,99.76,,,,,,,
39945.22,-0.00047,100.99,,,,,,,
39945.41,-0.00044,102.18,,,,,,,
39945.8,-0.00039,102.31,,,,,,,
39946.22,-0.00035,99.84,,,,,,,
39946.4,-0.00034,99.51,,,,,,,
39946.78,-0.00029,98.4,,,,,,,
39947.22,-0.00024,97.51,,,,,,,
39947.26,-0.00024,97.39,,,,,,,
39947.76,-0.00019,95.97,,,,,,,
39948.22,-0.00016,95.37,,,,,,,
39948.35,-0.00014,95.78,,,,,,,
39948.77,-9e-05,95.6,,,,,,,
39949.22,-5e-05,95.25,,,,,,,
39949.36,-4e-05,95.7,,,,,,,
69802.22,0.00494,78.14,,,,,,,
69802.28,0.00493,77.56,,,,,,,
69802.79,0.00488,72.11,,,,,,,
69803.22,0.00486,68.33,,,,,,,
69803.52,0.00483,64.38,,,,,,,
69804.01,0.00478,57.55,,,,,,,
69804.22,0.00475,54.89,,,,,,,
69804.62,0.00473,50.03,,,,,,,
69805.02,0.00468,44.21,,,,,,,
69805.22,0.00465,41.95,,,,,,,
69805.44,0.00463,41.26,,,,,,,
69806.03,0.00458,36.57,,,,,,,
69806.22,0.00456,34.88,,,,,,,
69806.49,0.00453,33.4,,,,,,,
69807.0,0.00448,30.33,,,,,,,
69807.22,0.00446,28.64,,,,,,,
69807.45,0.00443,27.29,,,,,,,
69808.07,0.00438,23.39,,,,,,,
69808.22,0.00436,21.91,,,,,,,
69808.61,0.00433,19.01,,,,,,,
69809.14,0.00428,13.99,,,,,,,
69809.22,0.00428,13.29,,,,,,,
69809.6,0.00423,8.74,,,,,,,
69810.22,0.00419,2.97,,,,,,,
69810.29,0.00418,2.49,,,,,,,
69811.18,0.00413,-3.12,,,,,,,
69811.22,0.00413,-3.58,,,,,,,
69811.43,0.00408,-8.54,,,,,,,
69811.63,0.00403,-12.03,,,,,,,
69812.22,0.004,-15.8,,,,,,,
69812.48,0.00398,-17.77,,,,,,,
69812.9,0.00393,-23.75,,,,,,,
69813.17,0.00388,-28.93,,,,,,,
69813.22,0.00387,-29.76,,,,,,,
69813.5,0.00383,-33.18,,,,,,,
69813.93,0.00378,-34.95,,,,,,,
69814.22,0.00376,-35.32,,,,,,,
69814.5,0.00373,-36.05,,,,,,,
69814.88,0.00368,-36.63,,,,,,,
69815.22,0.00367,-36.86,,,,,,,
69815.57,0.00363,-39.97,,,,,,,
69816.2,0.00358,-45.14,,,,,,,
69816.22,0.00358,-45.27,,,,,,,
69816.57,0.00353,-48.21,,,,,,,
69816.87,0.00348,-49.94,,,,,,,
69817.22,0.00346,-48.36,,,,,,,
69817.56,0.00343,-48.86,,,,,,,
69817.91,0.00338,-50.3,,,,,,,
69818.22,0.00336,-50.75,,,,,,,
69818.44,0.00333,-51.2,,,,,,,
69819.0,0.00328,-51.89,,,,,,,
69819.22,0.00326,-52.63,,,,,,,
69819.65,0.00323,-54.37,,,,,,,
69820.01,0.00318,-58.51,,,,,,,
69820.22,0.00316,-60.04,,,,,,,
69820.57,0.00313,-62.24,,,,,,,
69821.11,0.00308,-65.69,,,,,,,
69821.22,0.00307,-66.45,,,,,,,
69821.66,0.00303,-68.76,,,,,,,
69822.12,0.00298,-73.13,,,,,,,
69822.22,0.00297,-73.71,,,,,,,
69822.53,0.00293,-75.04,,,,,,,
69823.03,0.00288,-75.91,,,,,,,
69823.22,0.00286,-76.47,,,,,,,
69823.53,0.00283,-77.48,,,,,,,
69824.01,0.00278,-78.72,,,,,,,
69824.22,0.00277,-79.38,,,,,,,
69824.52,0.00273,-80.58,,,,,,,
69824.96,0.00268,-81.11,,,,,,,
69825.22,0.00266,-80.88,,,,,,,
69825.55,0.00263,-81.33,,,,,,,
69825.97,0.00258,-82.0,,,,,,,
69826.22,0.00256,-82.08,,,,,,,
69826.54,0.00253,-83.48,,,,,,,
69826.81,0.00248,-83.93,,,,,,,
69827.22,0.00244,-81.4,,,,,,,
69827.34,0.00243,-80.97,,,,,,,
69828.02,0.00238,-80.98,,,,,,,
69828.22,0.00236,-82.32,,,,,,,
69828.46,0.00233,-83.27,,,,,,,
69828.96,0.00228,-84.56,,,,,,,
69829.22,0.00226,-85.45,,,,,,,
69829.48,0.00223,-86.4,,,,,,,
69829.91,0.00218,-86.99,,,,,,,
69830.22,0.00216,-87.53,,,,,,,
69830.43,0.00213,-87.89,,,,,,,
69830.93,0.00208,-88.03,,,,,,,
69831.22,0.00205,-88.33,,,,,,,
69831.43,0.00203,-88.78,,,,,,,
69831.93,0.00198,-89.19,,,,,,,
69832.22,0.00194,-89.22,,,,,,,
69832.31,0.00193,-88.97,,,,,,,
69832.73,0.00188,-87.48,,,,,,,
69833.22,0.00183,-85.77,,,,,,,
69833.24,0.00183,-85.69,,,,,,,
69833.9,0.00178,-85.92,,,,,,,
69834.22,0.00174,-86.81,,,,,,,
69834.3,0.00173,-86.84,,,,,,,
69834.77,0.00168,-85.78,,,,,,,
69835.22,0.00164,-85.47,,,,,,,
69835.26,0.00163,-85.5,,,,,,,
69835.67,0.00158,-83.6,,,,,,,
69836.11,0.00153,-81.79,,,,,,,
69836.22,0.00153,-81.34,,,,,,,
69836.92,0.00148,-81.92,,,,,,,
69837.22,0.00144,-84.28,,,,,,,
69837.3,0.00143,-84.61,,,,,,,
69837.75,0.00138,-85.33,,,,,,,
69838.22,0.00134,-85.42,,,,,,,
69838.27,0.00133,-85.48,,,,,,,
69838.69,0.00128,-85.29,,,,,,,
69839.22,0.00124,-84.65,,,,,,,
69839.29,0.00123,-84.78,,,,,,,
69839.78,0.00118,-86.34,,,,,,,
69840.22,0.00115,-87.27,,,,,,,
69840.37,0.00113,-88.13,,,,,,,
69840.77,0.00108,-89.49,,,,,,,
69841.22,0.00103,-89.04,,,,,,,
69841.25,0.00103,-88.96,,,,,,,
69841.7,0.00098,-88.33,,,,,,,
69842.16,0.00093,-87.17,,,,,,,
69842.22,0.00092,-86.99,,,,,,,
69842.81,0.00088,-86.22,,,,,,,
69843.22,0.00085,-88.47,,,,,,,
69843.42,0.00083,-89.83,,,,,,,
69843.82,0.00078,-91.4,,,,,,,
69844.22,0.00074,-92.33,,,,,,,
69844.36,0.00073,-92.85,,,,,,,
69844.75,0.00068,-93.29,,,,,,,
69845.22,0.00064,-93.65,,,,,,,
69845.29,0.00063,-93.73,,,,,,,
69845.76,0.00058,-94.08,,,,,,,
69846.22,0.00053,-93.63,,,,,,,
69846.25,0.00053,-93.68,,,,,,,
69846.76,0.00048,-93.84,,,,,,,
69847.22,0.00044,-93.98,,,,,,,
69847.28,0.00043,-94.04,,,,,,,
69847.74,0.00038,-94.17,,,,,,,
69848.22,0.00034,-94.03,,,,,,,
69848.4,0.00033,-94.52,,,,,,,
69848.69,0.00028,-95.13,,,,,,,
69849.01,0.00023,-93.49,,,,,,,
69849.22,0.00022,-91.68,,,,,,,
69849.7,0.00018,-91.45,,,,,,,
69850.11,0.00013,-91.39,,,,,,,
69850.22,0.00012,-91.06,,,,,,,
69850.56,8e-05,-90.57,,,,,,,
69851.22,4e-05,-88.6,,,,,,,
69851.31,3e-05,-89.04,,,,,,,
69851.64,-2e-05,-90.93,,,,,,,
69852.14,-7e-05,-89.88,,,,,,,
69852.22,-8e-05,-89.78,,,,,,,
69852.59,-0.00012,-89.05,,,,,,,
69853.08,-0.00017,-87.47,,,,,,,
69853.22,-0.00019,-87.11,,,,,,,
69853.63,-0.00022,-86.79,,,,,,,
69854.21,-0.00027,-87.83,,,,,,,
69854.22,-0.00027,-87.88,,,,,,,
69854.75,-0.00032,-89.76,,,,,,,
69855.21,-0.00037,-90.79,,,,,,,
69855.22,-0.00037,-90.87,,,,,,,
69855.64,-0.00042,-91.08,,,,,,,
69856.09,-0.00047,-89.86,,,,,,,
69856.22,-0.00049,-89.46,,,,,,,
69856.68,-0.00052,-88.73,,,,,,,
69857.17,-0.00057,-88.52,,,,,,,
69857.22,-0.00058,-88.57,,,,,,,
69857.71,-0.00062,-89.67,,,,,,,
69858.07,-0.00067,-89.93,,,,,,,
69858.22,-0.00069,-89.34,,,,,,,
69858.65,-0.00072,-87.9,,,,,,,
69859.2,-0.00077,-89.44,,,,,,,
69859.22,-0.00078,-89.48,,,,,,,
69859.77,-0.00082,-90.12,,,,,,,
69860.22,-0.00086,-92.56,,,,,,,
69860.32,-0.00087,-93.06,,,,,,,
69860.83,-0.00092,-94.91,,,,,,,
69861.22,-0.00096,-96.36,,,,,,,
69861.36,-0.00097,-96.81,,,,,,,
69861.86,-0.00102,-98.11,,,,,,,
69862.22,-0.00107,-98.37,,,,,,,
69862.22,-0.00107,-98.41,,,,,,,
69862.74,-0.00112,-98.31,,,,,,,
69863.22,-0.00117,-98.18,,,,,,,
69863.25,-0.00117,-98.15,,,,,,,
69863.71,-0.00122,-98.45,,,,,,,
69864.09,-0.00127,-97.83,,,,,,,
69864.22,-0.00129,-97.49,,,,,,,
69864.58,-0.00132,-96.4,,,,,,,
69865.11,-0.00137,-95.82,,,,,,,
69865.22,-0.00138,-95.28,,,,,,,
69865.51,-0.00142,-94.45,,,,,,,
69865.99,-0.00147,-92.64,,,,,,,
69866.22,-0.0015,-91.48,,,,,,,
69866.84,-0.00152,-93.73,,,,,,,
69867.11,-0.00157,-95.88,,,,,,,
69867.22,-0.00159,-95.81,,,,,,,
69867.7,-0.00162,-95.09,,,,,,,
69868.16,-0.00167,-94.84,,,,,,,
69868.22,-0.00168,-94.8,,,,,,,
69868.54,-0.00172,-94.5,,,,,,,
69869.14,-0.00177,-92.12,,,,,,,
69869.22,-0.00178,-92.1,,,,,,,
69869.61,-0.00182,-92.68,,,,,,,
69870.06,-0.00187,-91.5,,,,,,,
69870.22,-0.00189,-91.02,,,,,,,
69870.53,-0.00192,-90.31,,,,,,,
69871.21,-0.00197,-89.3,,,,,,,
69871.22,-0.00197,-89.34,,,,,,,
69871.64,-0.00202,-91.23,,,,,,,
69872.07,-0.00207,-90.16,,,,,,,
69872.22,-0.00209,-89.91,,,,,,,
69872.65,-0.00212,-89.88,,,,,,,
69873.07,-0.00217,-90.06,,,,,,,
69873.22,-0.0022,-89.63,,,,,,,
69873.64,-0.00222,-89.73,,,,,,,
69874.09,-0.00227,-89.27,,,,,,,
69874.22,-0.00228,-89.16,,,,,,,
69874.74,-0.00232,-91.18,,,,,,,
69875.22,-0.00237,-92.08,,,,,,,
69875.26,-0.00237,-92.2,,,,,,,
69875.82,-0.00242,-95.27,,,,,,,
69876.22,-0.00247,-97.02,,,,,,,
69876.26,-0.00247,-97.12,,,,,,,
69876.66,-0.00253,-97.56,,,,,,,
69876.96,-0.00258,-96.98,,,,,,,
69877.22,-0.0026,-94.58,,,,,,,
69877.51,-0.00263,-92.24,,,,,,,
69878.22,-0.00267,-90.88,,,,,,,
69878.24,-0.00268,-90.96,,,,,,,
69878.68,-0.00273,-92.56,,,,,,,
69879.12,-0.00278,-92.5,,,,,,,
69879.22,-0.00279,-92.44,,,,,,,
69879.67,-0.00283,-91.86,,,,,,,
69880.15,-0.00288,-92.59,,,,,,,
69880.22,-0.00288,-92.6,,,,,,,
69880.59,-0.00293,-92.87,,,,,,,
69881.09,-0.00298,-91.79,,,,,,,
69881.22,-0.00299,-91.51,,,,,,,
69881.71,-0.00303,-91.77,,,,,,,
69882.16,-0.00308,-93.41,,,,,,,
69882.22,-0.00309,-93.47,,,,,,,
69882.53,-0.00313,-92.57,,,,,,,
69883.07,-0.00318,-91.19,,,,,,,
69883.22,-0.00319,-90.86,,,,,,,
69883.63,-0.00323,-91.06,,,,,,,
69884.22,-0.00327,-93.24,,,,,,,
69884.23,-0.00328,-93.28,,,,,,,
69884.71,-0.00333,-93.33,,,,,,,
69885.22,-0.00337,-94.64,,,,,,,
69885.25,-0.00338,-94.69,,,,,,,
69885.89,-0.00343,-97.58,,,,,,,
69886.22,-0.00345,-99.06,,,,,,,
69886.43,-0.00348,-100.17,,,,,,,
69886.78,-0.00353,-101.44,,,,,,,
69887.16,-0.00358,-101.83,,,,,,,
69887.22,-0.00358,-101.8,,,,,,,
69887.67,-0.00363,-101.34,,,,,,,
69888.11,-0.00368,-100.37,,,,,,,
69888.22,-0.00369,-100.13,,,,,,,
69888.61,-0.00373,-98.49,,,,,,,
69889.08,-0.00378,-96.59,,,,,,,
69889.22,-0.00379,-96.13,,,,,,,
69889.7,-0.00383,-95.27,,,,,,,
69890.11,-0.00388,-95.11,,,,,,,
69890.22,-0.00389,-94.89,,,,,,,
69890.89,-0.00393,-99.64,,,,,,,
69891.19,-0.00398,-102.07,,,,,,,
69891.22,-0.00398,-102.17,,,,,,,
69891.68,-0.00403,-101.06,,,,,,,
69892.18,-0.00408,-99.59,,,,,,,
69892.22,-0.00408,-99.57,,,,,,,
69892.64,-0.00413,-99.19,,,,,,,
69893.22,-0.00417,-97.88,,,,,,,
69893.24,-0.00418,-97.94,,,,,,,
69893.73,-0.00423,-98.48,,,,,,,
69894.2,-0.00428,-98.71,,,,,,,
69894.22,-0.00428,-98.67,,,,,,,
69894.63,-0.00433,-97.88,,,,,,,
69895.11,-0.00438,-97.09,,,,,,,
69895.22,-0.00439,-96.8,,,,,,,
69895.48,-0.00443,-95.62,,,,,,,
69896.06,-0.00448,-93.34,,,,,,,
69896.22,-0.00449,-92.93,,,,,,,
69896.5,-0.00453,-92.43,,,,,,,
69897.1,-0.00458,-91.38,,,,,,,
69897.22,-0.00459,-91.38,,,,,,,
69897.67,-0.00463,-91.33,,,,,,,
69898.1,-0.00468,-91.27,,,,,,,
69898.22,-0.00469,-91.16,,,,,,,
69898.63,-0.00473,-91.51,,,,,,,
69899.21,-0.00478,-92.38,,,,,,,
69899.22,-0.00478,-92.43,,,,,,,
69899.75,-0.00483,-95.71,,,,,,,
69900.19,-0.00488,-97.21,,,,,,,
69900.22,-0.00488,-97.26,,,,,,,
69900.7,-0.00493,-97.05,,,,,,,
69901.22,-0.00495,-99.24,,,,,,,
69901.38,-0.00498,-100.84,,,,,,,
69902.22,-0.00495,-91.34,,,,,,,
69902.37,-0.00493,-88.31,,,,,,,
69902.97,-0.00488,-79.42,,,,,,,
69903.22,-0.00486,-76.46,,,,,,,
69903.5,-0.00483,-73.09,,,,,,,
69904.0,-0.00478,-68.36,,,,,,,
69904.22,-0.00477,-66.39,,,,,,,
69904.56,-0.00473,-60.51,,,,,,,
69905.11,-0.00468,-51.08,,,,,,,
69905.22,-0.00466,-48.94,,,,,,,
69905.43,-0.00463,-46.05,,,,,,,
69906.18,-0.00458,-41.84,,,,,,,
69906.22,-0.00457,-41.36,,,,,,,
69906.57,-0.00453,-35.96,,,,,,,
69907.17,-0.00448,-29.15,,,,,,,
69907.22,-0.00447,-28.48,,,,,,,
69907.65,-0.00443,-23.93,,,,,,,
69908.17,-0.00438,-18.53,,,,,,,
69908.22,-0.00437,-17.71,,,,,,,
69908.47,-0.00433,-15.23,,,,,,,
69909.21,-0.00428,-12.08,,,,,,,
69909.22,-0.00428,-12.02,,,,,,,
69909.61,-0.00423,-7.88,,,,,,,
69910.22,-0.00419,-3.04,,,,,,,
69910.37,-0.00418,0.22,,,,,,,
69910.7,-0.00413,6.12,,,,,,,
69911.22,-0.00409,12.18,,,,,,,
69911.33,-0.00408,13.27,,,,,,,
69912.2,-0.00403,16.69,,,,,,,
69912.22,-0.00402,16.8,,,,,,,
69912.51,-0.00398,20.77,,,,,,,
69912.83,-0.00393,24.44,,,,,,,
69913.22,-0.0039,26.93,,,,,,,
69913.36,-0.00388,28.13,,,,,,,
69913.92,-0.00383,31.49,,,,,,,
69914.22,-0.00378,32.57,,,,,,,
69914.25,-0.00378,32.67,,,,,,,
69914.64,-0.00373,34.94,,,,,,,
69915.02,-0.00368,34.69,,,,,,,
69915.22,-0.00366,34.37,,,,,,,
69915.56,-0.00363,35.02,,,,,,,
69916.14,-0.00358,38.15,,,,,,,
69916.22,-0.00357,38.53,,,,,,,
69916.69,-0.00353,40.59,,,,,,,
69917.22,-0.00349,43.44,,,,,,,
69917.29,-0.00348,44.41,,,,,,,
69917.64,-0.00343,48.93,,,,,,,
69918.19,-0.00338,53.25,,,,,,,
69918.22,-0.00337,53.47,,,,,,,
69918.69,-0.00333,57.34,,,,,,,
69919.17,-0.00328,60.82,,,,,,,
69919.22,-0.00327,61.17,,,,,,,
69919.53,-0.00323,62.35,,,,,,,
69920.01,-0.00318,62.64,,,,,,,
69920.22,-0.00315,62.92,,,,,,,
69920.76,-0.00313,64.93,,,,,,,
69921.12,-0.00308,68.15,,,,,,,
69921.22,-0.00307,68.76,,,,,,,
69921.78,-0.00303,72.75,,,,,,,
69922.07,-0.00298,75.07,,,,,,,
69922.22,-0.00298,75.24,,,,,,,
69922.62,-0.00293,79.65,,,,,,,
69923.12,-0.00288,80.53,,,,,,,
69923.22,-0.00287,80.9,,,,,,,
69923.68,-0.00283,83.96,,,,,,,
69924.06,-0.00278,85.53,,,,,,,
69924.22,-0.00276,85.28,,,,,,,
69924.61,-0.00272,85.9,,,,,,,
69924.99,-0.00267,85.02,,,,,,,
69925.22,-0.00265,84.1,,,,,,,
69925.5,-0.00262,83.66,,,,,,,
69926.03,-0.00257,84.19,,,,,,,
69926.22,-0.00255,84.34,,,,,,,
69926.55,-0.00252,84.95,,,,,,,
69927.0,-0.00247,85.95,,,,,,,
69927.22,-0.00245,85.62,,,,,,,
69927.61,-0.00242,86.53,,,,,,,
69928.01,-0.00237,88.44,,,,,,,
69928.22,-0.00235,88.29,,,,,,,
69928.54,-0.00232,88.71,,,,,,,
69929.0,-0.00227,89.69,,,,,,,
69929.22,-0.00224,89.24,,,,,,,
69929.44,-0.00222,88.33,,,,,,,
69929.98,-0.00217,88.28,,,,,,,
69930.22,-0.00215,88.52,,,,,,,
69930.46,-0.00212,88.6,,,,,,,
69930.93,-0.00207,88.39,,,,,,,
69931.22,-0.00205,88.16,,,,,,,
69931.43,-0.00202,88.15,,,,,,,
69931.89,-0.00197,88.04,,,,,,,
69932.22,-0.00194,87.38,,,,,,,
69932.4,-0.00192,87.37,,,,,,,
69932.86,-0.00187,86.59,,,,,,,
69933.22,-0.00183,85.68,,,,,,,
69933.34,-0.00182,85.29,,,,,,,
69933.83,-0.00177,84.91,,,,,,,
69934.22,-0.00174,85.7,,,,,,,
69934.34,-0.00172,86.0,,,,,,,
69934.92,-0.00167,85.49,,,,,,,
69935.22,-0.00164,87.08,,,,,,,
69935.35,-0.00162,87.39,,,,,,,
69935.91,-0.00157,88.0,,,,,,,
69936.22,-0.00154,88.87,,,,,,,
69936.32,-0.00152,89.02,,,,,,,
69936.91,-0.00147,88.96,,,,,,,
69937.22,-0.00144,89.75,,,,,,,
69937.42,-0.00142,89.69,,,,,,,
69937.86,-0.00137,91.07,,,,,,,
69938.22,-0.00134,91.49,,,,,,,
69938.39,-0.00132,92.36,,,,,,,
69938.76,-0.00127,92.14,,,,,,,
69939.22,-0.00123,89.99,,,,,,,
69939.36,-0.00122,89.92,,,,,,,
69939.87,-0.00117,91.06,,,,,,,
69940.22,-0.00114,91.86,,,,,,,
69940.43,-0.00112,92.79,,,,,,,
69940.7,-0.00107,92.96,,,,,,,
69941.22,-0.00104,89.89,,,,,,,
69941.33,-0.00102,90.04,,,,,,,
69941.75,-0.00097,90.19,,,,,,,
69942.22,-0.00093,89.48,,,,,,,
69942.28,-0.00092,89.45,,,,,,,
69942.86,-0.00087,89.82,,,,,,,
69943.22,-0.00085,91.84,,,,,,,
69943.38,-0.00082,93.1,,,,,,,
69943.89,-0.00077,94.99,,,,,,,
69944.22,-0.00073,95.05,,,,,,,
69944.29,-0.00072,94.85,,,,,,,
69944.76,-0.00067,94.16,,,,,,,
69945.22,-0.00063,92.59,,,,,,,
69945.28,-0.00062,92.52,,,,,,,
69945.79,-0.00057,92.62,,,,,,,
69946.22,-0.00053,91.83,,,,,,,
69946.28,-0.00052,91.73,,,,,,,
69946.75,-0.00047,92.25,,,,,,,
69947.22,-0.00043,92.08,,,,,,,
69947.27,-0.00042,92.18,,,,,,,
69947.63,-0.00037,90.89,,,,,,,
69948.22,-0.00034,88.01,,,,,,,
69948.37,-0.00032,89.18,,,,,,,
69948.73,-0.00027,91.15,,,,,,,
69949.22,-0.00023,90.17,,,,,,,
69949.28,-0.00022,90.22,,,,,,,
69949.78,-0.00017,91.96,,,,,,,
69950.22,-0.00012,92.38,,,,,,,
69950.25,-0.00012,92.29,,,,,,,
69950.78,-7e-05,91.89,,,,,,,
69951.22,-3e-05,92.01,,,,,,,
69951.3,-2e-05,92.11,,,,,,,
69951.73,3e-05,92.29,,,,,,,
69952.22,7e-05,91.86,,,,,,,
69952.29,8e-05,92.02,,,,,,,
69952.85,0.00013,94.11,,,,,,,
69953.22,0.00017,95.73,,,,,,,
69953.31,0.00018,96.04,,,,,,,
69953.8,0.00023,96.86,,,,,,,
69954.22,0.00028,96.82,,,,,,,
69954.23,0.00028,96.83,,,,,,,
69954.64,0.00033,94.48,,,,,,,
69955.22,0.00037,92.37,,,,,,,
69955.26,0.00038,92.4,,,,,,,
69955.75,0.00043,92.51,,,,,,,
69956.18,0.00048,90.92,,,,,,,
69956.22,0.00048,90.75,,,,,,,
69956.78,0.00053,92.5,,,,,,,
69957.22,0.00057,93.3,,,,,,,
69957.27,0.00058,93.5,,,,,,,
69957.68,0.00063,93.64,,,,,,,
69958.17,0.00068,91.58,,,,,,,
69958.22,0.00069,91.46,,,,,,,
69958.67,0.00073,89.81,,,,,,,
69959.22,0.00078,89.0,,,,,,,
69959.23,0.00078,88.99,,,,,,,
69959.71,0.00083,89.24,,,,,,,
69960.22,0.00088,89.39,,,,,,,
69960.22,0.00088,89.36,,,,,,,
69960.76,0.00093,89.44,,,,,,,
69961.18,0.00098,90.46,,,,,,,
69961.22,0.00099,90.43,,,,,,,
69961.75,0.00103,90.28,,,,,,,
69962.22,0.00108,92.72,,,,,,,
69962.25,0.00108,92.82,,,,,,,
69962.78,0.00113,94.15,,,,,,,
69963.22,0.00118,94.46,,,,,,,
69963.25,0.00118,94.42,,,,,,,
69963.64,0.00123,93.98,,,,,,,
69964.22,0.00127,93.5,,,,,,,
69964.26,0.00128,93.63,,,,,,,
69964.67,0.00133,93.61,,,,,,,
69965.22,0.00138,89.06,,,,,,,
69965.28,0.00138,89.06,,,,,,,
69965.67,0.00143,89.42,,,,,,,
69966.22,0.00147,89.59,,,,,,,
69966.28,0.00148,89.98,,,,,,,
69966.76,0.00153,91.18,,,,,,,
69967.22,0.00157,92.26,,,,,,,
69967.32,0.00158,92.82,,,,,,,
69967.66,0.00163,93.91,,,,,,,
69968.22,0.00168,92.39,,,,,,,
69968.27,0.00168,92.47,,,,,,,
69968.75,0.00173,93.62,,,,,,,
69969.22,0.00178,94.07,,,,,,,
69969.22,0.00178,94.06,,,,,,,
69969.71,0.00183,93.97,,,,,,,
69970.22,0.00187,93.94,,,,,,,
69970.34,0.00188,94.62,,,,,,,
69970.78,0.00193,96.63,,,,,,,
69971.15,0.00198,96.22,,,,,,,
69971.22,0.00199,95.87,,,,,,,
69971.65,0.00203,93.15,,,,,,,
69972.19,0.00208,91.41,,,,,,,
69972.22,0.00208,91.4,,,,,,,
69972.78,0.00213,91.85,,,,,,,
69973.22,0.00218,92.44,,,,,,,
69973.22,0.00218,92.46,,,,,,,
69973.68,0.00223,92.54,,,,,,,
69974.22,0.00227,91.52,,,,,,,
69974.35,0.00228,92.36,,,,,,,
69974.76,0.00233,95.19,,,,,,,
69975.21,0.00238,95.93,,,,,,,
69975.22,0.00238,95.96,,,,,,,
69975.75,0.00243,96.38,,,,,,,
69976.22,0.00248,96.61,,,,,,,
69976.26,0.00248,96.6,,,,,,,
69976.68,0.00253,97.36,,,,,,,
69977.22,0.00257,96.2,,,,,,,
69977.31,0.00258,96.71,,,,,,,
69977.89,0.00263,98.17,,,,,,,
69978.22,0.00267,99.59,,,,,,,
69978.31,0.00268,99.64,,,,,,,
69978.65,0.00273,99.5,,,,,,,
69979.22,0.00278,95.35,,,,,,,
69979.38,0.00278,95.63,,,,,,,
69979.73,0.00283,97.64,,,,,,,
69980.22,0.00288,98.02,,,,,,,
69980.31,0.00288,98.32,,,,,,,
69980.65,0.00293,98.34,,,,,,,
69981.22,0.00298,98.06,,,,,,,
69981.26,0.00298,98.1,,,,,,,
69981.75,0.00303,97.56,,,,,,,
69982.22,0.00307,98.11,,,,,,,
69982.32,0.00308,98.68,,,,,,,
69982.68,0.00313,98.59,,,,,,,
69983.21,0.00318,97.47,,,,,,,
69983.22,0.00318,97.45,,,,,,,
69983.67,0.00323,95.92,,,,,,,
69984.21,0.00328,92.12,,,,,,,
69984.22,0.00328,92.04,,,,,,,
69984.67,0.00333,92.06,,,,,,,
69985.15,0.00338,91.0,,,,,,,
69985.22,0.00339,90.83,,,,,,,
69985.68,0.00343,90.89,,,,,,,
69986.22,0.00348,93.18,,,,,,,
69986.25,0.00348,93.28,,,,,,,
69986.72,0.00353,93.26,,,,,,,
69987.17,0.00358,92.82,,,,,,,
69987.22,0.00359,92.71,,,,,,,
69987.81,0.00363,94.32,,,,,,,
69988.18,0.00368,94.65,,,,,,,
69988.22,0.00369,94.46,,,,,,,
69988.77,0.00373,94.54,,,,,,,
69989.18,0.00378,95.93,,,,,,,
69989.22,0.00379,95.84,,,,,,,
69989.78,0.00383,92.66,,,,,,,
69990.22,0.00388,95.06,,,,,,,
69990.32,0.00388,95.32,,,,,,,
69990.71,0.00393,96.12,,,,,,,
69991.22,0.00398,95.48,,,,,,,
69991.27,0.00398,95.55,,,,,,,
69991.73,0.00403,96.26,,,,,,,
69992.22,0.00408,96.73,,,,,,,
69992.32,0.00408,97.14,,,,,,,
69992.73,0.00413,98.61,,,,,,,
69993.22,0.00417,97.46,,,,,,,
69993.38,0.00418,98.57,,,,,,,
69993.84,0.00423,99.58,,,,,,,
69994.19,0.00428,99.99,,,,,,,
69994.22,0.00429,99.85,,,,,,,
69994.82,0.00433,98.58,,,,,,,
69995.12,0.00438,98.04,,,,,,,
69995.22,0.00439,97.17,,,,,,,
69995.75,0.00443,98.45,,,,,,,
69996.22,0.00448,97.76,,,,,,,
69996.24,0.00448,97.79,,,,,,,
69996.67,0.00453,96.74,,,,,,,
69997.07,0.00458,94.05,,,,,,,
69997.22,0.0046,92.57,,,,,,,
69997.76,0.00463,89.79,,,,,,,
69998.22,0.00468,90.63,,,,,,,
69998.27,0.00468,90.79,,,,,,,
69998.84,0.00473,92.02,,,,,,,
69999.22,0.00478,93.61,,,,,,,
69999.25,0.00478,93.64,,,,,,,
69999.75,0.00484,95.77,,,,,,,
70000.18,0.00489,95.19,,,,,,,
70000.22,0.00489,95.06,,,,,,,
70000.71,0.00494,94.04,,,,,,,
70001.16,0.00499,93.42,,,,,,,
70001.22,0.00499,93.18,,,,,,,
99753.22,-0.0,81.91,,,,,,,
99753.36,2e-05,81.94,,,,,,,
99754.02,7e-05,80.52,,,,,,,
99754.22,9e-05,81.42,,,,,,,
99754.44,0.00012,82.72,,,,,,,
99754.98,0.00017,81.28,,,,,,,
99755.22,0.00019,81.59,,,,,,,
99755.44,0.00022,81.9,,,,,,,
99756.06,0.00027,81.13,,,,,,,
99756.22,0.00029,82.13,,,,,,,
99756.44,0.00032,82.75,,,,,,,
99756.94,0.00037,81.75,,,,,,,
99757.22,0.0004,81.59,,,,,,,
99757.41,0.00042,81.72,,,,,,,
99757.96,0.00047,83.05,,,,,,,
99758.22,0.0005,82.42,,,,,,,
99758.47,0.00052,82.53,,,,,,,
99758.84,0.00057,81.67,,,,,,,
99759.22,0.00061,78.98,,,,,,,
99759.32,0.00062,78.54,,,,,,,
99759.85,0.00067,75.02,,,,,,,
99760.22,0.00071,74.24,,,,,,,
99760.43,0.00072,74.08,,,,,,,
99760.97,0.00077,74.68,,,,,,,
99761.22,0.0008,75.99,,,,,,,
99761.46,0.00082,76.71,,,,,,,
99762.01,0.00087,78.68,,,,,,,
99762.22,0.0009,79.78,,,,,,,
99762.5,0.00092,80.52,,,,,,,
99762.95,0.00098,81.22,,,,,,,
99763.22,0.001,80.62,,,,,,,
99763.57,0.00103,81.8,,,,,,,
99763.97,0.00108,83.05,,,,,,,
99764.22,0.00109,83.39,,,,,,,
99764.48,0.00113,84.33,,,,,,,
99764.96,0.00118,83.93,,,,,,,
99765.22,0.0012,83.46,,,,,,,
99765.51,0.00123,83.98,,,,,,,
99765.89,0.00128,83.77,,,,,,,
99766.22,0.00129,83.57,,,,,,,
99766.46,0.00133,84.9,,,,,,,
99766.98,0.00138,83.47,,,,,,,
99767.22,0.00141,83.3,,,,,,,
99767.43,0.00143,82.57,,,,,,,
99767.96,0.00148,82.91,,,,,,,
99768.22,0.00151,83.06,,,,,,,
99768.39,0.00153,82.52,,,,,,,
99768.93,0.00158,82.21,,,,,,,
99769.22,0.00161,81.79,,,,,,,
99769.42,0.00163,81.67,,,,,,,
99769.95,0.00168,81.21,,,,,,,
99770.22,0.00171,81.11,,,,,,,
99770.43,0.00173,80.52,,,,,,,
99770.92,0.00178,80.97,,,,,,,
99771.22,0.00181,80.98,,,,,,,
99771.41,0.00183,80.98,,,,,,,
99771.96,0.00188,81.91,,,,,,,
99772.22,0.00192,81.27,,,,,,,
99772.36,0.00193,80.43,,,,,,,
99772.89,0.00198,77.72,,,,,,,
99773.22,0.00201,77.49,,,,,,,
99773.44,0.00203,77.72,,,,,,,
99773.94,0.00208,79.38,,,,,,,
99774.22,0.00211,79.93,,,,,,,
99774.38,0.00213,79.69,,,,,,,
99774.95,0.00218,79.64,,,,,,,
99775.22,0.00221,79.86,,,,,,,
99775.41,0.00223,79.92,,,,,,,
99776.06,0.00228,81.62,,,,,,,
99776.22,0.0023,82.65,,,,,,,
99776.53,0.00233,83.53,,,,,,,
99776.84,0.00238,84.66,,,,,,,
99777.22,0.0024,82.36,,,,,,,
99777.41,0.00243,82.08,,,,,,,
99777.88,0.00248,81.46,,,,,,,
99778.22,0.00251,80.74,,,,,,,
99778.46,0.00253,80.68,,,,,,,
99778.95,0.00258,80.63,,,,,,,
99779.22,0.0026,80.98,,,,,,,
99779.5,0.00263,81.66,,,,,,,
99779.86,0.00268,82.46,,,,,,,
99780.22,0.00271,80.05,,,,,,,
99780.43,0.00273,79.42,,,,,,,
99780.96,0.00278,80.61,,,,,,,
99781.22,0.0028,81.21,,,,,,,
99781.42,0.00283,81.56,,,,,,,
99781.99,0.00288,84.87,,,,,,,
99782.22,0.0029,84.86,,,,,,,
99782.43,0.00293,84.37,,,,,,,
99782.82,0.00298,82.82,,,,,,,
99783.22,0.00301,80.72,,,,,,,
99783.43,0.00303,80.82,,,,,,,
99783.87,0.00308,80.25,,,,,,,
99784.22,0.00311,78.8,,,,,,,
99784.5,0.00313,78.83,,,,,,,
99784.98,0.00318,80.12,,,,,,,
99785.22,0.0032,80.8,,,,,,,
99785.48,0.00323,81.91,,,,,,,
99786.03,0.00328,84.03,,,,,,,
99786.22,0.0033,84.61,,,,,,,
99786.59,0.00333,86.62,,,,,,,
99786.84,0.00338,87.31,,,,,,,
99787.22,0.0034,86.23,,,,,,,
99787.52,0.00343,87.39,,,,,,,
99787.84,0.00348,87.66,,,,,,,
99788.22,0.0035,83.27,,,,,,,
99788.47,0.00353,83.34,,,,,,,
99788.86,0.00358,83.51,,,,,,,
99789.22,0.00361,81.73,,,,,,,
99789.36,0.00363,81.52,,,,,,,
99789.9,0.00368,80.72,,,,,,,
99790.22,0.00371,80.56,,,,,,,
99790.43,0.00373,80.33,,,,,,,
99790.92,0.00378,83.6,,,,,,,
99791.22,0.00381,82.95,,,,,,,
99791.53,0.00383,84.13,,,,,,,
99791.93,0.00388,83.66,,,,,,,
99792.22,0.0039,83.61,,,,,,,
99792.46,0.00393,84.26,,,,,,,
99793.06,0.00398,83.32,,,,,,,
99793.22,0.00399,84.51,,,,,,,
99793.49,0.00403,86.44,,,,,,,
99793.96,0.00408,85.56,,,,,,,
99794.22,0.00411,85.77,,,,,,,
99794.49,0.00413,85.99,,,,,,,
99794.97,0.00418,84.75,,,,,,,
99795.22,0.0042,84.88,,,,,,,
99795.44,0.00423,85.66,,,,,,,
99795.84,0.00428,84.83,,,,,,,
99796.22,0.00429,84.36,,,,,,,
99796.5,0.00433,85.89,,,,,,,
99796.93,0.00438,86.31,,,,,,,
99797.22,0.00441,85.28,,,,,,,
99797.42,0.00443,84.33,,,,,,,
99797.86,0.00448,83.2,,,,,,,
99798.22,0.0045,81.93,,,,,,,
99798.47,0.00453,82.39,,,,,,,
99798.96,0.00458,82.33,,,,,,,
99799.22,0.0046,82.83,,,,,,,
99799.46,0.00463,83.32,,,,,,,
99799.89,0.00468,83.25,,,,,,,
99800.22,0.00472,81.78,,,,,,,
99800.43,0.00473,80.91,,,,,,,
99800.92,0.00478,80.88,,,,,,,
99801.22,0.00481,80.85,,,,,,,
99801.5,0.00483,81.28,,,,,,,
99801.93,0.00488,83.35,,,,,,,
99802.22,0.0049,83.34,,,,,,,
99802.44,0.00493,83.64,,,,,,,
99802.95,0.00498,83.17,,,,,,,
99803.22,0.00501,83.0,,,,,,,
99804.11,0.00493,69.06,,,,,,,
99804.22,0.00492,67.8,,,,,,,
99804.59,0.00488,63.13,,,,,,,
99805.22,0.00484,56.36,,,,,,,
99805.27,0.00483,55.49,,,,,,,
99805.63,0.00478,50.25,,,,,,,
99806.18,0.00473,45.97,,,,,,,
99806.22,0.00473,45.67,,,,,,,
99806.68,0.00468,42.03,,,,,,,
99807.16,0.00463,39.7,,,,,,,
99807.22,0.00462,39.42,,,,,,,
99807.72,0.00458,37.34,,,,,,,
99808.15,0.00453,35.14,,,,,,,
99808.22,0.00452,34.95,,,,,,,
99808.65,0.00448,33.65,,,,,,,
99809.22,0.00444,31.44,,,,,,,
99809.46,0.00443,28.82,,,,,,,
99809.75,0.00438,23.12,,,,,,,
99810.22,0.00433,19.84,,,,,,,
99810.3,0.00433,19.33,,,,,,,
99810.68,0.00428,16.85,,,,,,,
99811.22,0.00424,14.74,,,,,,,
99811.32,0.00423,14.11,,,,,,,
99811.81,0.00418,11.2,,,,,,,
99812.22,0.00414,9.3,,,,,,,
99812.28,0.00413,8.98,,,,,,,
99812.91,0.00408,5.49,,,,,,,
99813.22,0.00404,3.52,,,,,,,
99813.64,0.00403,2.87,,,,,,,
99814.22,0.00399,0.58,,,,,,,
99814.31,0.00398,-0.43,,,,,,,
99814.7,0.00393,-6.24,,,,,,,
99814.86,0.00388,-9.61,,,,,,,
99815.22,0.00386,-10.15,,,,,,,
99815.59,0.00383,-13.38,,,,,,,
99816.11,0.00378,-17.05,,,,,,,
99816.22,0.00376,-17.99,,,,,,,
99816.43,0.00373,-21.73,,,,,,,
99816.82,0.00368,-26.34,,,,,,,
99817.22,0.00363,-30.04,,,,,,,
99817.23,0.00363,-30.05,,,,,,,
99817.73,0.00358,-32.67,,,,,,,
99818.22,0.00353,-35.18,,,,,,,
99818.25,0.00353,-35.27,,,,,,,
99818.81,0.00348,-36.59,,,,,,,
99819.07,0.00343,-37.76,,,,,,,
99819.22,0.00342,-36.78,,,,,,,
99819.82,0.00338,-38.22,,,,,,,
99820.18,0.00333,-40.05,,,,,,,
99820.22,0.00332,-40.1,,,,,,,
99820.87,0.00328,-43.86,,,,,,,
99821.22,0.00324,-47.04,,,,,,,
99821.32,0.00323,-47.81,,,,,,,
99821.8,0.00318,-50.66,,,,,,,
99822.22,0.00313,-52.38,,,,,,,
99822.23,0.00313,-52.38,,,,,,,
99822.67,0.00308,-53.2,,,,,,,
99823.22,0.00303,-54.31,,,,,,,
99823.27,0.00303,-54.5,,,,,,,
99823.64,0.00298,-55.38,,,,,,,
99824.19,0.00293,-54.6,,,,,,,
99824.22,0.00293,-54.61,,,,,,,
99824.64,0.00288,-54.71,,,,,,,
99825.11,0.00283,-54.34,,,,,,,
99825.22,0.00281,-54.25,,,,,,,
99825.6,0.00278,-53.86,,,,,,,
99826.21,0.00273,-54.09,,,,,,,
99826.22,0.00273,-54.11,,,,,,,
99826.88,0.00268,-56.24,,,,,,,
99827.22,0.00264,-59.72,,,,,,,
99827.3,0.00263,-60.46,,,,,,,
99827.68,0.00258,-62.84,,,,,,,
99828.1,0.00253,-62.07,,,,,,,
99828.22,0.00252,-61.63,,,,,,,
99828.78,0.00248,-64.92,,,,,,,
99829.22,0.00243,-66.27,,,,,,,
99829.22,0.00243,-66.27,,,,,,,
99829.59,0.00238,-66.16,,,,,,,
99830.03,0.00233,-65.14,,,,,,,
99830.22,0.00232,-64.33,,,,,,,
99830.67,0.00228,-64.03,,,,,,,
99831.15,0.00223,-64.66,,,,,,,
99831.22,0.00222,-64.79,,,,,,,
99831.76,0.00218,-67.54,,,,,,,
99832.22,0.00213,-69.91,,,,,,,
99832.33,0.00213,-70.41,,,,,,,
99832.81,0.00208,-74.15,,,,,,,
99833.09,0.00203,-75.14,,,,,,,
99833.22,0.00201,-74.59,,,,,,,
99833.7,0.00198,-73.61,,,,,,,
99834.15,0.00193,-73.19,,,,,,,
99834.22,0.00192,-73.07,,,,,,,
99834.68,0.00188,-72.27,,,,,,,
99835.07,0.00183,-72.95,,,,,,,
99835.22,0.00181,-72.49,,,,,,,
99835.65,0.00178,-72.88,,,,,,,
99836.07,0.00173,-72.51,,,,,,,
99836.22,0.00171,-72.2,,,,,,,
99836.71,0.00168,-73.13,,,,,,,
99837.08,0.00163,-73.69,,,,,,,
99837.22,0.00161,-73.47,,,,,,,
99837.56,0.00158,-72.7,,,,,,,
99838.09,0.00153,-71.06,,,,,,,
99838.22,0.00151,-71.13,,,,,,,
99838.6,0.00147,-70.84,,,,,,,
99839.05,0.00142,-70.52,,,,,,,
99839.22,0.00141,-70.41,,,,,,,
99839.64,0.00137,-70.49,,,,,,,
99840.1,0.00132,-72.88,,,,,,,
99840.22,0.00131,-73.01,,,,,,,
99840.63,0.00127,-73.73,,,,,,,
99841.14,0.00122,-75.51,,,,,,,
99841.22,0.00122,-75.72,,,,,,,
99841.6,0.00117,-76.24,,,,,,,
99842.09,0.00112,-76.65,,,,,,,
99842.22,0.00111,-76.68,,,,,,,
99842.59,0.00107,-76.76,,,,,,,
99843.09,0.00102,-76.96,,,,,,,
99843.22,0.00101,-76.89,,,,,,,
99843.59,0.00097,-76.87,,,,,,,
99844.03,0.00092,-76.23,,,,,,,
99844.22,0.00091,-75.96,,,,,,,
99844.43,0.00087,-75.41,,,,,,,
99845.09,0.00082,-73.16,,,,,,,
99845.22,0.00081,-73.46,,,,,,,
99845.66,0.00077,-75.75,,,,,,,
99846.12,0.00072,-78.21,,,,,,,
99846.22,0.00071,-78.51,,,,,,,
99846.57,0.00067,-78.87,,,,,,,
99847.02,0.00062,-78.68,,,,,,,
99847.22,0.0006,-78.44,,,,,,,
99847.57,0.00057,-78.15,,,,,,,
99847.97,0.00052,-77.92,,,,,,,
99848.22,0.0005,-77.13,,,,,,,
99848.45,0.00047,-76.29,,,,,,,
99848.85,0.00042,-74.42,,,,,,,
99849.22,0.00041,-73.52,,,,,,,
99849.35,0.00037,-73.62,,,,,,,
99849.79,0.00032,-71.5,,,,,,,
99850.22,0.0003,-70.84,,,,,,,
99850.51,0.00027,-71.57,,,,,,,
99850.99,0.00022,-71.97,,,,,,,
99851.22,0.0002,-71.53,,,,,,,
99851.56,0.00017,-71.91,,,,,,,
99852.19,0.00012,-74.69,,,,,,,
99852.22,0.00012,-75.07,,,,,,,
99852.53,7e-05,-77.53,,,,,,,
99852.97,2e-05,-77.79,,,,,,,
99853.22,0.0,-77.51,,,,,,,
99853.5,-3e-05,-77.74,,,,,,,
99854.04,-8e-05,-76.35,,,,,,,
99854.22,-0.0001,-76.5,,,,,,,
99854.46,-0.00013,-76.53,,,,,,,
99855.07,-0.00018,-76.76,,,,,,,
99855.22,-0.0002,-77.31,,,,,,,
99855.51,-0.00023,-78.25,,,,,,,
99855.96,-0.00028,-77.17,,,,,,,
99856.22,-0.0003,-76.78,,,,,,,
99856.61,-0.00033,-76.78,,,,,,,
99857.04,-0.00038,-78.83,,,,,,,
99857.22,-0.00039,-79.2,,,,,,,
99857.53,-0.00043,-80.17,,,,,,,
99858.0,-0.00048,-80.08,,,,,,,
99858.22,-0.0005,-80.07,,,,,,,
99858.6,-0.00053,-80.63,,,,,,,
99859.01,-0.00058,-81.48,,,,,,,
99859.22,-0.0006,-81.42,,,,,,,
99859.52,-0.00063,-81.29,,,,,,,
99859.94,-0.00068,-80.86,,,,,,,
99860.22,-0.00071,-79.99,,,,,,,
99860.36,-0.00073,-79.41,,,,,,,
99861.02,-0.00078,-77.98,,,,,,,
99861.22,-0.0008,-77.97,,,,,,,
99861.53,-0.00083,-77.83,,,,,,,
99861.95,-0.00088,-78.57,,,,,,,
99862.22,-0.0009,-78.26,,,,,,,
99862.43,-0.00093,-78.1,,,,,,,
99862.96,-0.00098,-78.43,,,,,,,
99863.22,-0.001,-77.96,,,,,,,
99863.46,-0.00103,-78.0,,,,,,,
99863.9,-0.00108,-76.78,,,,,,,
99864.22,-0.00111,-76.39,,,,,,,
99864.46,-0.00113,-76.47,,,,,,,
99864.89,-0.00118,-76.33,,,,,,,
99865.22,-0.0012,-75.45,,,,,,,
99865.51,-0.00123,-75.96,,,,,,,
99866.18,-0.00128,-83.52,,,,,,,
99866.22,-0.00129,-84.17,,,,,,,
99866.5,-0.00133,-86.22,,,,,,,
99866.99,-0.00138,-85.76,,,,,,,
99867.22,-0.0014,-85.33,,,,,,,
99867.49,-0.00143,-85.1,,,,,,,
99867.92,-0.00148,-84.13,,,,,,,
99868.22,-0.0015,-83.38,,,,,,,
99868.56,-0.00153,-83.0,,,,,,,
99869.01,-0.00158,-83.61,,,,,,,
99869.22,-0.0016,-83.45,,,,,,,
99869.5,-0.00163,-83.88,,,,,,,
99869.97,-0.00168,-83.99,,,,,,,
99870.22,-0.0017,-83.67,,,,,,,
99870.5,-0.00173,-83.41,,,,,,,
99871.0,-0.00178,-83.99,,,,,,,
99871.22,-0.00181,-83.81,,,,,,,
99871.38,-0.00183,-83.26,,,,,,,
99871.97,-0.00188,-81.82,,,,,,,
99872.22,-0.00191,-81.71,,,,,,,
99872.46,-0.00193,-81.51,,,,,,,
99872.95,-0.00198,-81.88,,,,,,,
99873.22,-0.002,-81.69,,,,,,,
99873.49,-0.00203,-82.05,,,,,,,
99873.97,-0.00208,-81.91,,,,,,,
99874.22,-0.0021,-81.9,,,,,,,
99874.4,-0.00213,-81.69,,,,,,,
99874.86,-0.00218,-79.94,,,,,,,
99875.22,-0.00222,-78.43,,,,,,,
99875.34,-0.00223,-77.78,,,,,,,
99875.88,-0.00228,-76.31,,,,,,,
99876.22,-0.00232,-75.27,,,,,,,
99876.26,-0.00233,-75.11,,,,,,,
99877.0,-0.00238,-73.53,,,,,,,
99877.22,-0.0024,-74.7,,,,,,,
99877.55,-0.00243,-76.6,,,,,,,
99878.06,-0.00248,-79.2,,,,,,,
99878.22,-0.0025,-79.65,,,,,,,
99878.48,-0.00253,-80.26,,,,,,,
99878.99,-0.00258,-79.76,,,,,,,
99879.22,-0.00261,-79.66,,,,,,,
99879.35,-0.00263,-79.47,,,,,,,
99879.88,-0.00268,-77.73,,,,,,,
99880.22,-0.00271,-76.77,,,,,,,
99880.39,-0.00273,-76.66,,,,,,,
99881.15,-0.00278,-80.75,,,,,,,
99881.22,-0.0028,-81.84,,,,,,,
99881.47,-0.00283,-82.58,,,,,,,
99882.07,-0.00288,-85.36,,,,,,,
99882.22,-0.0029,-85.97,,,,,,,
99882.5,-0.00293,-86.85,,,,,,,
99882.96,-0.00298,-87.12,,,,,,,
99883.22,-0.00302,-86.88,,,,,,,
99883.31,-0.00303,-86.39,,,,,,,
99883.87,-0.00308,-82.73,,,,,,,
99884.22,-0.00311,-81.27,,,,,,,
99884.4,-0.00313,-80.62,,,,,,,
99884.96,-0.00318,-80.22,,,,,,,
99885.22,-0.00321,-80.12,,,,,,,
99885.53,-0.00323,-80.62,,,,,,,
99885.98,-0.00328,-81.68,,,,,,,
99886.22,-0.00331,-81.81,,,,,,,
99886.5,-0.00333,-81.94,,,,,,,
99886.96,-0.00338,-82.78,,,,,,,
99887.22,-0.00341,-82.43,,,,,,,
99887.5,-0.00343,-82.43,,,,,,,
99887.93,-0.00348,-82.45,,,,,,,
99888.22,-0.00351,-82.04,,,,,,,
99888.41,-0.00353,-81.72,,,,,,,
99888.89,-0.00358,-80.65,,,,,,,
99889.22,-0.00362,-78.81,,,,,,,
99889.45,-0.00363,-78.26,,,,,,,
99889.9,-0.00368,-78.94,,,,,,,
99890.22,-0.00371,-78.24,,,,,,,
99890.37,-0.00373,-77.81,,,,,,,
99891.06,-0.00378,-79.76,,,,,,,
99891.22,-0.0038,-80.9,,,,,,,
99891.47,-0.00383,-81.64,,,,,,,
99891.99,-0.00388,-81.74,,,,,,,
99892.22,-0.00389,-81.78,,,,,,,
99892.54,-0.00393,-83.77,,,,,,,
99892.91,-0.00398,-84.56,,,,,,,
99893.22,-0.004,-83.97,,,,,,,
99893.5,-0.00403,-84.69,,,,,,,
99893.85,-0.00408,-83.44,,,,,,,
99894.22,-0.00411,-81.77,,,,,,,
99894.51,-0.00413,-81.13,,,,,,,
99894.98,-0.00418,-82.06,,,,,,,
99895.22,-0.0042,-82.58,,,,,,,
99895.53,-0.00423,-83.38,,,,,,,
99896.0,-0.00428,-84.09,,,,,,,
99896.22,-0.0043,-84.31,,,,,,,
99896.47,-0.00433,-84.46,,,,,,,
99896.93,-0.00438,-84.16,,,,,,,
99897.22,-0.00442,-83.22,,,,,,,
99897.52,-0.00443,-82.59,,,,,,,
99897.96,-0.00448,-82.65,,,,,,,
99898.22,-0.00451,-82.53,,,,,,,
99898.46,-0.00453,-82.22,,,,,,,
99898.93,-0.00458,-84.08,,,,,,,
99899.22,-0.0046,-83.34,,,,,,,
99899.64,-0.00463,-86.5,,,,,,,
99900.1,-0.00468,-89.52,,,,,,,
99900.22,-0.00469,-90.08,,,,,,,
99900.58,-0.00473,-91.47,,,,,,,
99901.21,-0.00478,-93.52,,,,,,,
99901.22,-0.00478,-93.6,,,,,,,
99901.61,-0.00483,-95.02,,,,,,,
99901.97,-0.00488,-95.17,,,,,,,
99902.22,-0.00491,-94.13,,,,,,,
99902.45,-0.00493,-92.82,,,,,,,
99902.96,-0.00498,-90.89,,,,,,,
99903.22,-0.00501,-90.16,,,,,,,
99904.22,-0.00494,-68.85,,,,,,,
99904.29,-0.00493,-67.61,,,,,,,
99904.8,-0.00488,-59.35,,,,,,,
99905.22,-0.00483,-52.99,,,,,,,
99905.25,-0.00483,-52.77,,,,,,,
99905.81,-0.00478,-46.13,,,,,,,
99906.22,-0.00474,-42.2,,,,,,,
99906.39,-0.00473,-39.55,,,,,,,
99906.63,-0.00468,-35.95,,,,,,,
99907.22,-0.00464,-32.12,,,,,,,
99907.39,-0.00463,-30.27,,,,,,,
99907.82,-0.00458,-25.36,,,,,,,
99908.22,-0.00453,-21.51,,,,,,,
99908.23,-0.00453,-21.39,,,,,,,
99908.95,-0.00448,-16.46,,,,,,,
99909.22,-0.00443,-12.31,,,,,,,
99909.25,-0.00443,-12.0,,,,,,,
99909.89,-0.00438,-9.33,,,,,,,
99910.22,-0.00434,-7.0,,,,,,,
99910.32,-0.00433,-6.43,,,,,,,
99910.83,-0.00428,-3.19,,,,,,,
99911.21,-0.00423,-2.01,,,,,,,
99911.22,-0.00423,-2.02,,,,,,,
99911.92,-0.00418,0.04,,,,,,,
99912.22,-0.00414,1.89,,,,,,,
99912.39,-0.00413,2.75,,,,,,,
99912.83,-0.00408,5.4,,,,,,,
99913.22,-0.00405,7.2,,,,,,,
99913.39,-0.00403,8.27,,,,,,,
99913.9,-0.00398,12.49,,,,,,,
99914.22,-0.00397,13.16,,,,,,,
99914.93,-0.00393,16.88,,,,,,,
99915.22,-0.00389,22.35,,,,,,,
99915.25,-0.00388,23.32,,,,,,,
99915.34,-0.00383,26.47,,,,,,,
99915.92,-0.00378,23.5,,,,,,,
99916.22,-0.00375,23.47,,,,,,,
99916.46,-0.00373,23.92,,,,,,,
99917.1,-0.00368,26.88,,,,,,,
99917.22,-0.00366,28.71,,,,,,,
99917.5,-0.00363,31.48,,,,,,,
99917.79,-0.00358,34.84,,,,,,,
99918.22,-0.00353,36.33,,,,,,,
99918.22,-0.00353,36.35,,,,,,,
99918.81,-0.00348,38.52,,,,,,,
99919.22,-0.00344,40.75,,,,,,,
99919.43,-0.00343,41.97,,,,,,,
99919.81,-0.00338,45.41,,,,,,,
99920.22,-0.00333,47.42,,,,,,,
99920.25,-0.00333,47.56,,,,,,,
99920.89,-0.00328,49.46,,,,,,,
99921.22,-0.00324,51.33,,,,,,,
99921.32,-0.00323,51.76,,,,,,,
99921.71,-0.00318,53.01,,,,,,,
99922.18,-0.00313,53.48,,,,,,,
99922.22,-0.00313,53.55,,,,,,,
99922.86,-0.00308,55.34,,,,,,,
99923.22,-0.00304,56.91,,,,,,,
99923.32,-0.00303,57.25,,,,,,,
99923.91,-0.00298,59.64,,,,,,,
99924.15,-0.00293,62.24,,,,,,,
99924.22,-0.00292,62.05,,,,,,,
99924.73,-0.00288,64.7,,,,,,,
99925.14,-0.00283,64.37,,,,,,,
99925.22,-0.00282,64.04,,,,,,,
99925.71,-0.00278,64.3,,,,,,,
99926.1,-0.00273,64.9,,,,,,,
99926.22,-0.00271,64.73,,,,,,,
99926.62,-0.00268,63.87,,,,,,,
99927.14,-0.00263,62.95,,,,,,,
99927.22,-0.00262,62.9,,,,,,,
99927.6,-0.00258,62.88,,,,,,,
99928.22,-0.00253,64.42,,,,,,,
99928.27,-0.00253,64.78,,,,,,,
99928.7,-0.00248,67.86,,,,,,,
99929.2,-0.00243,69.72,,,,,,,
99929.22,-0.00242,69.79,,,,,,,
99929.54,-0.00238,69.49,,,,,,,
99930.13,-0.00233,68.99,,,,,,,
99930.22,-0.00232,69.09,,,,,,,
99930.64,-0.00228,69.15,,,,,,,
99931.14,-0.00223,70.74,,,,,,,
99931.22,-0.00222,70.86,,,,,,,
99931.57,-0.00218,70.98,,,,,,,
99932.02,-0.00213,71.14,,,,,,,
99932.22,-0.00212,70.43,,,,,,,
99932.62,-0.00208,71.86,,,,,,,
99933.13,-0.00203,72.05,,,,,,,
99933.22,-0.00202,72.22,,,,,,,
99933.62,-0.00198,72.94,,,,,,,
99934.11,-0.00193,74.61,,,,,,,
99934.22,-0.00191,74.81,,,,,,,
99934.51,-0.00188,74.73,,,,,,,
99935.15,-0.00183,74.38,,,,,,,
99935.22,-0.00182,74.74,,,,,,,
99935.63,-0.00178,75.66,,,,,,,
99936.08,-0.00173,76.73,,,,,,,
99936.22,-0.00171,76.63,,,,,,,
99936.52,-0.00168,76.12,,,,,,,
99937.03,-0.00163,76.09,,,,,,,
99937.22,-0.00161,75.73,,,,,,,
99937.57,-0.00158,75.92,,,,,,,
99938.01,-0.00153,75.48,,,,,,,
99938.22,-0.0015,74.84,,,,,,,
99938.49,-0.00148,73.58,,,,,,,
99939.02,-0.00143,73.24,,,,,,,
99939.22,-0.0014,73.08,,,,,,,
99939.52,-0.00138,72.59,,,,,,,
99940.04,-0.00133,72.52,,,,,,,
99940.22,-0.00131,72.82,,,,,,,
99940.6,-0.00128,73.93,,,,,,,
99941.05,-0.00123,75.77,,,,,,,
99941.22,-0.00122,76.23,,,,,,,
99941.55,-0.00118,78.61,,,,,,,
99941.99,-0.00113,77.75,,,,,,,
99942.22,-0.0011,76.63,,,,,,,
99942.51,-0.00108,76.43,,,,,,,
99943.0,-0.00103,75.38,,,,,,,
99943.22,-0.00101,75.29,,,,,,,
99943.46,-0.00098,75.3,,,,,,,
99943.99,-0.00093,74.08,,,,,,,
99944.22,-0.00091,74.08,,,,,,,
99944.54,-0.00088,74.75,,,,,,,
99945.1,-0.00083,77.32,,,,,,,
99945.22,-0.00082,78.11,,,,,,,
99945.62,-0.00078,80.12,,,,,,,
99946.07,-0.00073,81.56,,,,,,,
99946.22,-0.0007,81.63,,,,,,,
99946.41,-0.00068,81.3,,,,,,,
99946.97,-0.00063,78.3,,,,,,,
99947.22,-0.0006,77.77,,,,,,,
99947.54,-0.00058,77.63,,,,,,,
99947.93,-0.00053,78.1,,,,,,,
99948.22,-0.00051,77.18,,,,,,,
99948.53,-0.00048,78.57,,,,,,,
99948.93,-0.00043,80.0,,,,,,,
99949.22,-0.00039,77.93,,,,,,,
99949.46,-0.00038,76.71,,,,,,,
99949.85,-0.00033,74.97,,,,,,,
99950.22,-0.0003,74.3,,,,,,,
99950.4,-0.00028,74.44,,,,,,,
99950.89,-0.00023,73.05,,,,,,,
99951.22,-0.0002,72.83,,,,,,,
99951.47,-0.00018,73.24,,,,,,,
99952.02,-0.00013,76.04,,,,,,,
99952.22,-0.00011,76.92,,,,,,,
99952.62,-7e-05,80.36,,,,,,,
99953.06,-2e-05,83.15,,,,,,,
129604.93,0.005,65.01,,,,,,,
129605.22,0.00499,61.81,,,,,,,
129605.42,0.00495,59.14,,,,,,,
129606.09,0.0049,54.84,,,,,,,
129606.22,0.00488,53.36,,,,,,,
129606.53,0.00485,50.94,,,,,,,
129607.11,0.0048,45.93,,,,,,,
129607.22,0.00478,45.02,,,,,,,
129607.62,0.00475,42.39,,,,,,,
129608.07,0.0047,41.17,,,,,,,
129608.22,0.0047,40.64,,,,,,,
129608.54,0.00465,37.49,,,,,,,
129609.22,0.0046,35.0,,,,,,,
129609.24,0.0046,34.77,,,,,,,
129609.59,0.00455,31.3,,,,,,,
129610.22,0.0045,27.9,,,,,,,
129610.69,0.00445,25.38,,,,,,,
129611.22,0.0044,22.23,,,,,,,
129611.24,0.0044,22.05,,,,,,,
129611.75,0.00435,19.25,,,,,,,
129612.22,0.0043,16.48,,,,,,,
129612.23,0.0043,16.46,,,,,,,
129612.74,0.00425,14.44,,,,,,,
129613.19,0.0042,13.28,,,,,,,
129613.22,0.0042,13.21,,,,,,,
129613.74,0.00415,11.35,,,,,,,
129614.22,0.00411,8.94,,,,,,,
129614.29,0.0041,8.59,,,,,,,
129614.79,0.00405,6.41,,,,,,,
129615.22,0.00401,5.0,,,,,,,
129615.3,0.004,4.56,,,,,,,
129616.18,0.00395,2.7,,,,,,,
129616.22,0.00395,2.59,,,,,,,
129616.67,0.0039,1.6,,,,,,,
129616.99,0.00385,-0.25,,,,,,,
129617.22,0.00383,-1.63,,,,,,,
129617.3,0.0038,-3.58,,,,,,,
129617.83,0.00375,-3.86,,,,,,,
129618.22,0.00371,-5.07,,,,,,,
129618.41,0.0037,-5.54,,,,,,,
129618.81,0.00365,-6.96,,,,,,,
129619.22,0.00362,-7.46,,,,,,,
129619.34,0.0036,-7.92,,,,,,,
129619.74,0.00355,-10.21,,,,,,,
129620.22,0.0035,-12.3,,,,,,,
129620.23,0.0035,-12.4,,,,,,,
129620.52,0.00345,-13.41,,,,,,,
129621.16,0.0034,-14.17,,,,,,,
129621.22,0.00339,-14.38,,,,,,,
129621.71,0.00335,-16.86,,,,,,,
129622.17,0.0033,-18.96,,,,,,,
129622.22,0.00329,-19.22,,,,,,,
129622.62,0.00325,-20.34,,,,,,,
129623.2,0.0032,-21.36,,,,,,,
129623.22,0.0032,-21.43,,,,,,,
129623.69,0.00315,-22.57,,,,,,,
129624.09,0.0031,-24.48,,,,,,,
129624.22,0.00309,-24.51,,,,,,,
129624.66,0.00305,-24.65,,,,,,,
129625.19,0.003,-26.47,,,,,,,
129625.22,0.003,-26.69,,,,,,,
129625.73,0.00295,-28.57,,,,,,,
129626.14,0.0029,-29.61,,,,,,,
129626.22,0.00289,-29.76,,,,,,,
129626.74,0.00285,-30.8,,,,,,,
129627.17,0.0028,-33.16,,,,,,,
129627.22,0.00279,-33.31,,,,,,,
129627.66,0.00275,-33.17,,,,,,,
129628.22,0.0027,-34.08,,,,,,,
129628.22,0.0027,-34.07,,,,,,,
129628.74,0.00265,-37.32,,,,,,,
129629.22,0.0026,-38.7,,,,,,,
129629.22,0.0026,-38.68,,,,,,,
129629.67,0.00255,-39.7,,,,,,,
129630.06,0.0025,-39.95,,,,,,,
129630.22,0.00249,-39.75,,,,,,,
129630.71,0.00245,-40.27,,,,,,,
129631.19,0.0024,-41.5,,,,,,,
129631.22,0.00239,-41.63,,,,,,,
129631.51,0.00235,-41.78,,,,,,,
129632.2,0.0023,-43.03,,,,,,,
129632.22,0.00229,-43.17,,,,,,,
129632.68,0.00225,-43.17,,,,,,,
129633.22,0.00221,-43.85,,,,,,,
129633.35,0.0022,-44.74,,,,,,,
129633.67,0.00215,-46.95,,,,,,,
129634.09,0.0021,-47.72,,,,,,,
129634.22,0.00208,-47.8,,,,,,,
129634.65,0.00205,-46.92,,,,,,,
129635.22,0.002,-47.45,,,,,,,
129635.23,0.002,-47.45,,,,,,,
129635.73,0.00195,-48.4,,,,,,,
129636.07,0.0019,-48.97,,,,,,,
129636.22,0.00188,-48.81,,,,,,,
129636.66,0.00185,-48.15,,,,,,,
129637.16,0.0018,-48.47,,,,,,,
129637.22,0.00179,-48.53,,,,,,,
129637.68,0.00175,-49.36,,,,,,,
129638.2,0.0017,-49.83,,,,,,,
129638.22,0.0017,-49.81,,,,,,,
129638.65,0.00165,-51.15,,,,,,,
129639.17,0.0016,-51.71,,,,,,,
129639.22,0.00159,-51.8,,,,,,,
129639.63,0.00155,-52.25,,,,,,,
129640.11,0.0015,-52.04,,,,,,,
129640.22,0.00148,-52.07,,,,,,,
129640.57,0.00145,-51.29,,,,,,,
129641.13,0.0014,-51.63,,,,,,,
129641.22,0.00139,-51.75,,,,,,,
129641.67,0.00135,-52.55,,,,,,,
129642.11,0.0013,-52.95,,,,,,,
129642.22,0.00129,-53.04,,,,,,,
129642.62,0.00125,-53.1,,,,,,,
129643.14,0.0012,-53.59,,,,,,,
129643.22,0.00119,-53.8,,,,,,,
129643.62,0.00115,-53.9,,,,,,,
129644.05,0.0011,-54.42,,,,,,,
129644.22,0.00109,-54.12,,,,,,,
129644.62,0.00105,-54.95,,,,,,,
129645.07,0.001,-55.02,,,,,,,
129645.22,0.00098,-55.02,,,,,,,
129645.59,0.00095,-55.09,,,,,,,
129646.12,0.0009,-56.07,,,,,,,
129646.22,0.00088,-56.24,,,,,,,
129646.49,0.00085,-55.73,,,,,,,
129647.08,0.0008,-55.65,,,,,,,
129647.22,0.00078,-55.76,,,,,,,
129647.56,0.00075,-56.29,,,,,,,
129648.03,0.0007,-56.37,,,,,,,
129648.22,0.00068,-56.03,,,,,,,
129648.59,0.00065,-56.31,,,,,,,
129649.08,0.0006,-56.79,,,,,,,
129649.22,0.00057,-56.85,,,,,,,
129649.4,0.00055,-56.11,,,,,,,
129650.05,0.0005,-54.69,,,,,,,
129650.22,0.00048,-54.89,,,,,,,
129650.51,0.00045,-55.26,,,,,,,
129651.0,0.0004,-54.37,,,,,,,
129651.22,0.00039,-54.61,,,,,,,
129651.47,0.00035,-55.2,,,,,,,
129652.06,0.0003,-56.11,,,,,,,
129652.22,0.00027,-56.31,,,,,,,
129652.52,0.00025,-55.93,,,,,,,
129653.0,0.0002,-55.77,,,,,,,
129653.22,0.00017,-55.66,,,,,,,
129653.47,0.00015,-55.21,,,,,,,
129653.99,0.0001,-55.69,,,,,,,
129654.22,8e-05,-55.58,,,,,,,
129654.62,5e-05,-56.71,,,,,,,
129655.09,-0.0,-58.22,,,,,,,
129655.22,-2e-05,-58.6,,,,,,,
129655.59,-5e-05,-59.12,,,,,,,
129656.09,-0.0001,-60.24,,,,,,,
129656.22,-0.00012,-60.5,,,,,,,
129656.52,-0.00015,-60.87,,,,,,,
129656.99,-0.0002,-60.04,,,,,,,
129657.22,-0.00023,-59.49,,,,,,,
129657.49,-0.00025,-59.14,,,,,,,
129658.04,-0.0003,-58.75,,,,,,,
129658.22,-0.00032,-59.01,,,,,,,
129658.5,-0.00035,-59.55,,,,,,,
129658.98,-0.0004,-59.13,,,,,,,
129659.22,-0.00044,-58.82,,,,,,,
129659.49,-0.00045,-57.9,,,,,,,
129660.02,-0.0005,-57.64,,,,,,,
129660.22,-0.00052,-58.09,,,,,,,
129660.51,-0.00055,-58.13,,,,,,,
129660.96,-0.0006,-57.52,,,,,,,
129661.22,-0.00062,-57.7,,,,,,,
129661.5,-0.00065,-59.74,,,,,,,
129662.07,-0.00071,-60.01,,,,,,,
129662.22,-0.00072,-60.38,,,,,,,
129662.45,-0.00076,-60.43,,,,,,,
129662.99,-0.00081,-61.54,,,,,,,
129663.22,-0.00082,-61.34,,,,,,,
129663.56,-0.00086,-61.35,,,,,,,
129664.02,-0.00091,-61.34,,,,,,,
129664.22,-0.00094,-60.77,,,,,,,
129664.41,-0.00096,-60.1,,,,,,,
129665.06,-0.00101,-59.56,,,,,,,
129665.22,-0.00103,-59.9,,,,,,,
129665.45,-0.00106,-59.82,,,,,,,
129665.9,-0.00111,-59.1,,,,,,,
129666.22,-0.00113,-58.33,,,,,,,
129666.49,-0.00116,-58.28,,,,,,,
129667.02,-0.00121,-58.76,,,,,,,
129667.22,-0.00123,-59.23,,,,,,,
129667.48,-0.00126,-59.6,,,,,,,
129668.08,-0.00131,-59.81,,,,,,,
129668.22,-0.00133,-60.38,,,,,,,
129668.46,-0.00136,-60.01,,,,,,,
129669.02,-0.00141,-60.41,,,,,,,
129669.22,-0.00142,-61.06,,,,,,,
129669.55,-0.00146,-62.78,,,,,,,
129670.05,-0.00151,-63.97,,,,,,,
129670.22,-0.00152,-64.15,,,,,,,
129670.48,-0.00156,-64.28,,,,,,,
129670.99,-0.00161,-63.36,,,,,,,
129671.22,-0.00163,-63.07,,,,,,,
129671.46,-0.00166,-63.02,,,,,,,
129671.95,-0.00171,-62.45,,,,,,,
129672.22,-0.00173,-61.73,,,,,,,
129672.52,-0.00176,-61.49,,,,,,,
129672.98,-0.00181,-61.38,,,,,,,
129673.22,-0.00183,-61.01,,,,,,,
129673.47,-0.00186,-60.81,,,,,,,
129673.99,-0.00191,-59.96,,,,,,,
129674.22,-0.00193,-59.81,,,,,,,
129674.47,-0.00196,-59.86,,,,,,,
129675.02,-0.00201,-59.49,,,,,,,
129675.22,-0.00203,-59.94,,,,,,,
129675.51,-0.00206,-60.1,,,,,,,
129676.05,-0.00211,-61.76,,,,,,,
129676.22,-0.00213,-61.96,,,,,,,
129676.49,-0.00216,-61.47,,,,,,,
129677.02,-0.00221,-61.32,,,,,,,
129677.22,-0.00222,-61.63,,,,,,,
129677.49,-0.00226,-62.19,,,,,,,
129677.99,-0.00231,-62.03,,,,,,,
129678.22,-0.00234,-61.7,,,,,,,
129678.46,-0.00236,-60.87,,,,,,,
129679.05,-0.00241,-61.43,,,,,,,
129679.22,-0.00243,-61.79,,,,,,,
129679.53,-0.00246,-62.27,,,,,,,
129680.04,-0.00251,-62.61,,,,,,,
129680.22,-0.00253,-62.93,,,,,,,
129680.59,-0.00256,-63.66,,,,,,,
129681.02,-0.00261,-64.9,,,,,,,
129681.22,-0.00263,-64.83,,,,,,,
129681.54,-0.00266,-64.82,,,,,,,
129681.92,-0.00271,-64.36,,,,,,,
129682.22,-0.00273,-63.37,,,,,,,
129682.44,-0.00276,-63.3,,,,,,,
129682.94,-0.00281,-61.88,,,,,,,
129683.22,-0.00284,-61.05,,,,,,,
129683.43,-0.00286,-60.68,,,,,,,
129684.01,-0.00291,-61.06,,,,,,,
129684.22,-0.00293,-60.59,,,,,,,
129684.59,-0.00296,-62.32,,,,,,,
129685.01,-0.00301,-64.03,,,,,,,
129685.22,-0.00303,-64.01,,,,,,,
129685.47,-0.00306,-63.94,,,,,,,
129686.09,-0.00311,-63.86,,,,,,,
129686.22,-0.00314,-64.24,,,,,,,
129686.53,-0.00316,-64.26,,,,,,,
129686.99,-0.00321,-63.44,,,,,,,
129687.22,-0.00323,-63.09,,,,,,,
129687.58,-0.00326,-62.91,,,,,,,
129688.03,-0.00331,-63.56,,,,,,,
129688.22,-0.00333,-63.62,,,,,,,
129688.41,-0.00336,-63.02,,,,,,,
129689.06,-0.00341,-62.66,,,,,,,
129689.22,-0.00342,-63.1,,,,,,,
129689.48,-0.00346,-63.73,,,,,,,
129690.0,-0.00351,-63.34,,,,,,,
129690.22,-0.00352,-63.01,,,,,,,
129690.45,-0.00356,-63.86,,,,,,,
129690.95,-0.00361,-62.57,,,,,,,
129691.22,-0.00363,-62.12,,,,,,,
129691.54,-0.00366,-62.37,,,,,,,
129692.05,-0.00371,-63.86,,,,,,,
129692.22,-0.00373,-64.17,,,,,,,
129692.59,-0.00376,-64.99,,,,,,,
129693.12,-0.00381,-66.24,,,,,,,
129693.22,-0.00382,-66.59,,,,,,,
129693.52,-0.00386,-67.01,,,,,,,
129693.98,-0.00391,-66.58,,,,,,,
129694.22,-0.00393,-66.11,,,,,,,
129694.45,-0.00396,-65.69,,,,,,,
129694.94,-0.00401,-64.92,,,,,,,
129695.22,-0.00404,-64.39,,,,,,,
129695.46,-0.00406,-64.12,,,,,,,
129695.93,-0.00411,-63.42,,,,,,,
129696.22,-0.00413,-63.11,,,,,,,
129696.62,-0.00416,-63.75,,,,,,,
129697.08,-0.00421,-64.98,,,,,,,
129697.22,-0.00423,-65.18,,,,,,,
129697.62,-0.00426,-65.96,,,,,,,
129698.06,-0.00431,-66.59,,,,,,,
129698.22,-0.00433,-66.75,,,,,,,
129698.44,-0.00436,-66.53,,,,,,,
129699.04,-0.00441,-65.7,,,,,,,
129699.22,-0.00443,-65.67,,,,,,,
129699.7,-0.00446,-66.08,,,,,,,
129700.12,-0.00451,-67.98,,,,,,,
129700.22,-0.00453,-68.23,,,,,,,
129700.52,-0.00456,-68.22,,,,,,,
129700.99,-0.00461,-68.29,,,,,,,
129701.22,-0.00464,-68.07,,,,,,,
129701.48,-0.00466,-67.33,,,,,,,
129702.19,-0.00471,-70.09,,,,,,,
129702.22,-0.00472,-70.32,,,,,,,
129702.69,-0.00476,-73.18,,,,,,,
129703.15,-0.00481,-75.77,,,,,,,
129703.22,-0.00482,-76.04,,,,,,,
129703.58,-0.00486,-76.1,,,,,,,
129704.22,-0.00491,-76.54,,,,,,,
129704.24,-0.00491,-76.63,,,,,,,
129704.71,-0.00496,-79.19,,,,,,,
129705.22,-0.005,-78.06,,,,,,,
129706.05,-0.00491,-61.23,,,,,,,
129706.22,-0.00489,-59.23,,,,,,,
129706.69,-0.00486,-54.02,,,,,,,
129707.0,-0.00481,-49.7,,,,,,,
129707.22,-0.0048,-48.89,,,,,,,
129707.67,-0.00476,-45.97,,,,,,,
129708.16,-0.00471,-40.18,,,,,,,
129708.22,-0.0047,-39.54,,,,,,,
129708.65,-0.00466,-35.85,,,,,,,
129709.22,-0.00462,-31.48,,,,,,,
129709.27,-0.00461,-30.82,,,,,,,
129709.72,-0.00456,-26.89,,,,,,,
129710.13,-0.00451,-24.13,,,,,,,
129710.22,-0.0045,-23.67,,,,,,,
129710.72,-0.00446,-21.5,,,,,,,
129711.22,-0.00441,-18.62,,,,,,,
129711.27,-0.00441,-18.33,,,,,,,
129711.7,-0.00436,-15.83,,,,,,,
129712.22,-0.00432,-13.25,,,,,,,
129712.3,-0.00431,-12.81,,,,,,,
129712.8,-0.00426,-9.47,,,,,,,
129713.22,-0.00421,-6.92,,,,,,,
129713.25,-0.00421,-6.78,,,,,,,
129713.75,-0.00416,-4.78,,,,,,,
129714.22,-0.00411,-2.08,,,,,,,
129714.26,-0.00411,-1.89,,,,,,,
129714.69,-0.00406,0.3,,,,,,,
129715.22,-0.00402,2.29,,,,,,,
129715.31,-0.00401,3.12,,,,,,,
129715.65,-0.00396,6.0,,,,,,,
129716.18,-0.00391,7.45,,,,,,,
129716.22,-0.00391,7.48,,,,,,,
129716.73,-0.00386,9.15,,,,,,,
129717.21,-0.00381,10.6,,,,,,,
129717.22,-0.00381,10.6,,,,,,,
129718.06,-0.00376,12.67,,,,,,,
129718.22,-0.00374,12.98,,,,,,,
129718.56,-0.00371,13.74,,,,,,,
129719.09,-0.00366,15.69,,,,,,,
129719.22,-0.00364,17.02,,,,,,,
129719.34,-0.00361,19.14,,,,,,,
129719.74,-0.00356,17.74,,,,,,,
129720.22,-0.00352,18.98,,,,,,,
129720.27,-0.00351,19.16,,,,,,,
129720.87,-0.00346,21.65,,,,,,,
129721.22,-0.00342,23.06,,,,,,,
129721.32,-0.00341,23.19,,,,,,,
129721.83,-0.00336,26.63,,,,,,,
129722.06,-0.00331,28.04,,,,,,,
129722.22,-0.0033,27.53,,,,,,,
129722.53,-0.00326,27.58,,,,,,,
129723.11,-0.00321,28.06,,,,,,,
129723.22,-0.0032,28.36,,,,,,,
129723.65,-0.00316,29.19,,,,,,,
129724.22,-0.00311,31.34,,,,,,,
129724.26,-0.00311,31.66,,,,,,,
129724.67,-0.00306,34.62,,,,,,,
129725.14,-0.00301,36.94,,,,,,,
129725.22,-0.003,37.23,,,,,,,
129725.62,-0.00296,38.24,,,,,,,
129726.16,-0.00291,39.53,,,,,,,
129726.22,-0.0029,39.69,,,,,,,
129726.79,-0.00286,41.41,,,,,,,
129726.98,-0.00281,43.13,,,,,,,
129727.22,-0.0028,42.13,,,,,,,
129727.64,-0.00276,42.87,,,,,,,
129728.04,-0.00271,43.94,,,,,,,
129728.22,-0.0027,43.58,,,,,,,
129728.61,-0.00266,44.14,,,,,,,
129729.06,-0.00261,44.56,,,,,,,
129729.22,-0.0026,44.56,,,,,,,
129729.49,-0.00256,45.36,,,,,,,
129730.09,-0.00251,43.06,,,,,,,
129730.22,-0.00249,43.2,,,,,,,
129730.5,-0.00246,43.48,,,,,,,
129731.02,-0.00241,44.06,,,,,,,
129731.22,-0.00239,43.89,,,,,,,
129731.6,-0.00236,45.74,,,,,,,
129732.1,-0.00231,47.26,,,,,,,
129732.22,-0.00229,47.74,,,,,,,
129732.57,-0.00226,48.32,,,,,,,
129733.0,-0.00221,48.24,,,,,,,
129733.22,-0.00219,47.82,,,,,,,
129733.52,-0.00216,47.52,,,,,,,
129734.06,-0.00211,48.67,,,,,,,
129734.22,-0.00208,49.69,,,,,,,
129734.6,-0.00206,50.09,,,,,,,
129735.1,-0.00201,50.77,,,,,,,
129735.22,-0.00198,51.15,,,,,,,
129735.52,-0.00196,51.67,,,,,,,
129736.06,-0.00191,51.08,,,,,,,
129736.22,-0.00188,51.55,,,,,,,
129736.56,-0.00186,51.07,,,,,,,
129737.09,-0.00181,52.87,,,,,,,
129737.22,-0.00179,53.51,,,,,,,
129737.59,-0.00176,54.19,,,,,,,
129738.03,-0.00171,54.28,,,,,,,
129738.22,-0.0017,54.7,,,,,,,
129738.51,-0.00166,56.0,,,,,,,
129739.03,-0.00161,56.27,,,,,,,
129739.22,-0.00159,56.56,,,,,,,
129739.52,-0.00156,56.84,,,,,,,
129739.93,-0.00151,55.32,,,,,,,
129740.22,-0.00147,54.25,,,,,,,
129740.42,-0.00146,52.94,,,,,,,
129740.93,-0.00141,51.75,,,,,,,
129741.22,-0.00138,51.4,,,,,,,
129741.45,-0.00136,51.11,,,,,,,
129741.94,-0.00131,52.73,,,,,,,
129742.22,-0.00129,52.63,,,,,,,
129742.48,-0.00126,53.58,,,,,,,
129742.97,-0.00121,54.56,,,,,,,
129743.22,-0.00118,54.78,,,,,,,
129743.49,-0.00116,55.31,,,,,,,
129743.96,-0.00111,56.28,,,,,,,
129744.22,-0.00108,56.25,,,,,,,
129744.52,-0.00106,56.55,,,,,,,
129744.96,-0.00101,56.47,,,,,,,
129745.22,-0.00098,56.84,,,,,,,
129745.49,-0.00096,57.52,,,,,,,
129745.98,-0.00091,57.82,,,,,,,
129746.22,-0.00088,57.94,,,,,,,
129746.45,-0.00086,58.14,,,,,,,
129746.97,-0.00081,58.74,,,,,,,
129747.22,-0.00078,58.92,,,,,,,
129747.46,-0.00075,59.43,,,,,,,
129748.0,-0.0007,59.27,,,,,,,
129748.22,-0.00068,59.67,,,,,,,
129748.49,-0.00065,59.51,,,,,,,
129748.91,-0.0006,59.35,,,,,,,
129749.22,-0.00057,59.12,,,,,,,
129749.52,-0.00055,59.72,,,,,,,
129749.98,-0.0005,60.79,,,,,,,
129750.22,-0.00048,60.9,,,,,,,
129750.45,-0.00045,60.58,,,,,,,
129750.99,-0.0004,60.78,,,,,,,
129751.22,-0.00038,60.83,,,,,,,
129751.44,-0.00035,60.53,,,,,,,
129751.92,-0.0003,60.82,,,,,,,
129752.22,-0.00028,60.39,,,,,,,
129752.47,-0.00025,61.36,,,,,,,
129752.93,-0.0002,61.03,,,,,,,
129753.22,-0.00018,60.9,,,,,,,
129753.4,-0.00015,60.69,,,,,,,
129753.96,-0.0001,61.23,,,,,,,
129754.22,-8e-05,61.46,,,,,,,
129754.46,-5e-05,61.5,,,,,,,
129754.94,-0.0,61.41,,,,,,,
129755.22,2e-05,61.09,,,,,,,
129755.42,5e-05,61.42,,,,,,,
129755.91,0.0001,62.65,,,,,,,
129756.22,0.00014,61.63,,,,,,,
129756.45,0.00015,60.44,,,,,,,
129756.81,0.0002,60.43,,,,,,,
129757.22,0.00023,59.15,,,,,,,
129757.39,0.00025,58.92,,,,,,,
129757.92,0.0003,58.4,,,,,,,
129758.22,0.00033,58.23,,,,,,,
129758.44,0.00035,58.05,,,,,,,
129758.88,0.0004,59.02,,,,,,,
129759.22,0.00042,59.05,,,,,,,
129759.41,0.00045,59.42,,,,,,,
129759.92,0.0005,58.83,,,,,,,
129760.22,0.00053,59.25,,,,,,,
129760.42,0.00055,58.96,,,,,,,
129760.89,0.0006,58.62,,,,,,,
129761.22,0.00063,58.13,,,,,,,
129761.36,0.00065,57.69,,,,,,,
129761.88,0.0007,56.9,,,,,,,
129762.22,0.00073,56.58,,,,,,,
129762.42,0.00075,56.8,,,,,,,
129762.99,0.0008,57.59,,,,,,,
129763.22,0.00082,58.56,,,,,,,
129763.38,0.00085,59.08,,,,,,,
129763.95,0.0009,59.01,,,,,,,
129764.22,0.00092,59.42,,,,,,,
129764.48,0.00095,60.33,,,,,,,
129764.95,0.001,62.25,,,,,,,
129765.22,0.00102,62.24,,,,,,,
129765.4,0.00105,62.39,,,,,,,
129765.86,0.0011,61.03,,,,,,,
129766.22,0.00112,60.23,,,,,,,
129766.42,0.00115,60.58,,,,,,,
129766.9,0.0012,60.31,,,,,,,
129767.22,0.00123,59.98,,,,,,,
129767.42,0.00125,60.16,,,,,,,
129767.95,0.0013,60.1,,,,,,,
129768.22,0.00133,60.66,,,,,,,
129768.39,0.00135,61.09,,,,,,,
129768.9,0.0014,60.85,,,,,,,
129769.22,0.00143,60.47,,,,,,,
129769.43,0.00145,60.67,,,,,,,
129769.92,0.0015,61.48,,,,,,,
129770.22,0.00152,61.59,,,,,,,
129770.51,0.00155,62.35,,,,,,,
129770.99,0.0016,63.37,,,,,,,
129771.22,0.00163,63.17,,,,,,,
129771.52,0.00165,63.07,,,,,,,
129771.85,0.0017,64.24,,,,,,,
129772.22,0.00173,62.62,,,,,,,
129772.4,0.00175,62.26,,,,,,,
129772.96,0.0018,62.43,,,,,,,
129773.22,0.00183,62.45,,,,,,,
129773.45,0.00185,62.32,,,,,,,
129774.06,0.0019,62.4,,,,,,,
129774.22,0.00193,63.49,,,,,,,
129774.42,0.00195,63.56,,,,,,,
129774.95,0.002,64.44,,,,,,,
129775.22,0.00203,64.14,,,,,,,
129775.39,0.00205,63.41,,,,,,,
129775.95,0.0021,63.03,,,,,,,
129776.22,0.00213,63.22,,,,,,,
129776.39,0.00215,63.11,,,,,,,
129776.95,0.0022,62.6,,,,,,,
129777.22,0.00223,62.58,,,,,,,
129777.42,0.00225,62.41,,,,,,,
129777.93,0.0023,62.37,,,,,,,
129778.22,0.00233,62.54,,,,,,,
129778.44,0.00235,62.65,,,,,,,
129778.95,0.0024,63.36,,,,,,,
129779.22,0.00243,63.76,,,,,,,
129779.45,0.00245,63.23,,,,,,,
129779.95,0.0025,62.99,,,,,,,
129780.22,0.00253,63.25,,,,,,,
129780.43,0.00255,63.2,,,,,,,
129780.87,0.0026,63.72,,,,,,,
129781.22,0.00262,63.78,,,,,,,
129781.46,0.00265,64.87,,,,,,,
129781.9,0.0027,66.3,,,,,,,
129782.22,0.00273,65.65,,,,,,,
129782.41,0.00275,65.27,,,,,,,
129782.95,0.0028,64.84,,,,,,,
129783.22,0.00283,64.7,,,,,,,
129783.46,0.00285,65.02,,,,,,,
129783.92,0.0029,65.17,,,,,,,
129784.22,0.00293,65.66,,,,,,,
129784.46,0.00295,65.93,,,,,,,
129784.89,0.003,65.9,,,,,,,
129785.22,0.00303,65.45,,,,,,,
129785.4,0.00305,65.34,,,,,,,
129785.89,0.0031,64.67,,,,,,,
129786.22,0.00312,64.99,,,,,,,
129786.49,0.00315,66.45,,,,,,,
129786.95,0.0032,66.33,,,,,,,
129787.22,0.00322,66.34,,,,,,,
129787.43,0.00325,66.95,,,,,,,
129787.93,0.0033,66.81,,,,,,,
129788.22,0.00332,66.81,,,,,,,
129788.42,0.00335,67.96,,,,,,,
129788.93,0.0034,67.3,,,,,,,
129789.22,0.00344,67.37,,,,,,,
129789.38,0.00345,67.0,,,,,,,
129790.01,0.0035,66.39,,,,,,,
129790.22,0.00353,66.79,,,,,,,
129790.38,0.00355,66.67,,,,,,,
129790.9,0.0036,65.62,,,,,,,
129791.22,0.00363,64.97,,,,,,,
129791.47,0.00365,64.81,,,,,,,
129791.93,0.0037,65.34,,,,,,,
129792.22,0.00374,64.94,,,,,,,
129792.41,0.00375,64.45,,,,,,,
129792.95,0.0038,64.16,,,,,,,
129793.22,0.00384,64.74,,,,,,,
129793.38,0.00385,64.21,,,,,,,
129794.05,0.0039,65.38,,,,,,,
129794.22,0.00393,66.61,,,,,,,
129794.34,0.00395,66.93,,,,,,,
129794.92,0.004,66.32,,,,,,,
129795.22,0.00402,65.92,,,,,,,
129795.51,0.00405,66.89,,,,,,,
129795.94,0.0041,67.67,,,,,,,
129796.22,0.00414,66.89,,,,,,,
129796.38,0.00415,65.9,,,,,,,
129796.91,0.0042,65.31,,,,,,,
129797.22,0.00423,64.69,,,,,,,
129797.42,0.00425,64.43,,,,,,,
129797.98,0.0043,64.59,,,,,,,
129798.22,0.00432,64.85,,,,,,,
129798.47,0.00435,67.28,,,,,,,
129798.88,0.0044,67.56,,,,,,,
129799.22,0.00442,67.17,,,,,,,
129799.46,0.00445,68.53,,,,,,,
129799.92,0.0045,68.11,,,,,,,
129800.22,0.00453,67.68,,,,,,,
129800.45,0.00455,67.33,,,,,,,
129800.99,0.0046,66.59,,,,,,,
129801.22,0.00464,67.3,,,,,,,
129801.38,0.00465,66.54,,,,,,,
129801.94,0.0047,64.39,,,,,,,
129802.22,0.00473,64.63,,,,,,,
129802.38,0.00475,64.37,,,,,,,
129802.99,0.0048,64.84,,,,,,,
129803.22,0.00483,65.12,,,,,,,
129803.46,0.00485,65.27,,,,,,,
129804.02,0.0049,65.83,,,,,,,
129804.22,0.00493,66.54,,,,,,,
129804.43,0.00495,66.55,,,,,,,
