time,strain,stress,temperature,type,strain_rate,max_strain,title,youngs,poissons
0.0,7e-05,7.7,850,fatigue,0.001,0.00524,416-7,153000,0.3
0.07,0.00012,13.89,,,,,,,
0.14,0.00017,21.09,,,,,,,
0.2,0.00022,28.44,,,,,,,
0.25,0.00027,35.38,,,,,,,
0.31,0.00032,42.1,,,,,,,
0.37,0.00037,48.44,,,,,,,
0.44,0.00043,55.34,,,,,,,
0.5,0.00048,62.18,,,,,,,
0.56,0.00053,68.52,,,,,,,
0.62,0.00058,75.17,,,,,,,
0.67,0.00063,81.85,,,,,,,
0.73,0.00068,89.4,,,,,,,
0.78,0.00073,97.21,,,,,,,
0.8,0.00076,102.03,,,,,,,
0.82,0.00078,104.93,,,,,,,
0.86,0.00083,112.43,,,,,,,
0.9,0.00088,120.0,,,,,,,
0.94,0.00093,127.38,,,,,,,
0.98,0.00098,135.08,,,,,,,
1.03,0.00103,142.69,,,,,,,
1.08,0.00108,150.01,,,,,,,
1.12,0.00113,156.69,,,,,,,
1.16,0.00118,161.7,,,,,,,
1.19,0.00123,164.03,,,,,,,
1.2,0.00129,164.83,,,,,,,
1.22,0.00134,165.35,,,,,,,
1.23,0.00139,165.8,,,,,,,
1.25,0.00144,165.84,,,,,,,
1.5,0.00149,162.5,,,,,,,
1.55,0.00155,169.13,,,,,,,
1.58,0.0016,169.82,,,,,,,
1.59,0.00165,166.08,,,,,,,
1.59,0.00172,166.43,,,,,,,
1.59,0.00177,166.58,,,,,,,
1.59,0.00183,166.67,,,,,,,
1.59,0.0019,166.83,,,,,,,
1.59,0.00197,166.91,,,,,,,
1.59,0.00203,166.99,,,,,,,
1.59,0.0021,167.12,,,,,,,
1.59,0.00216,167.27,,,,,,,
1.6,0.00225,167.62,,,,,,,
1.6,0.0023,167.91,,,,,,,
1.61,0.00224,168.21,,,,,,,
1.66,0.00219,149.99,,,,,,,
1.67,0.00214,142.2,,,,,,,
1.69,0.00209,134.75,,,,,,,
1.7,0.00204,127.53,,,,,,,
1.71,0.00198,120.47,,,,,,,
1.73,0.00193,113.6,,,,,,,
1.75,0.00188,106.92,,,,,,,
1.77,0.00183,100.6,,,,,,,
1.8,0.0018,97.22,,,,,,,
1.9,0.00188,111.56,,,,,,,
1.93,0.00193,118.7,,,,,,,
1.96,0.00198,125.71,,,,,,,
2.0,0.00203,132.9,,,,,,,
2.04,0.00208,139.67,,,,,,,
2.09,0.00213,146.49,,,,,,,
2.15,0.00218,153.44,,,,,,,
2.21,0.00223,160.07,,,,,,,
2.26,0.00228,166.97,,,,,,,
2.32,0.00233,173.62,,,,,,,
2.33,0.00239,169.13,,,,,,,
2.34,0.00245,169.44,,,,,,,
2.34,0.0025,169.98,,,,,,,
2.37,0.00255,171.9,,,,,,,
2.4,0.0026,171.25,,,,,,,
2.66,0.00265,175.76,,,,,,,
2.67,0.0027,170.56,,,,,,,
2.67,0.00276,170.93,,,,,,,
2.68,0.00283,171.21,,,,,,,
2.68,0.00292,171.47,,,,,,,
2.68,0.00301,171.74,,,,,,,
2.68,0.00307,172.12,,,,,,,
2.69,0.00313,172.67,,,,,,,
2.75,0.00308,164.18,,,,,,,
2.78,0.00303,156.73,,,,,,,
2.8,0.00298,150.58,,,,,,,
2.81,0.00297,149.6,,,,,,,
2.84,0.00292,143.23,,,,,,,
2.99,0.00297,153.43,,,,,,,
3.03,0.00302,160.4,,,,,,,
3.06,0.00307,167.39,,,,,,,
3.1,0.00312,173.91,,,,,,,
3.14,0.00318,175.15,,,,,,,
3.14,0.00324,172.08,,,,,,,
3.15,0.00332,172.49,,,,,,,
3.15,0.00337,172.64,,,,,,,
3.15,0.00344,172.72,,,,,,,
3.15,0.0035,172.88,,,,,,,
3.15,0.00357,172.94,,,,,,,
3.15,0.00364,173.02,,,,,,,
3.15,0.00371,173.16,,,,,,,
3.15,0.00377,173.3,,,,,,,
3.15,0.00385,173.64,,,,,,,
3.21,0.0038,162.12,,,,,,,
3.22,0.00375,153.4,,,,,,,
3.23,0.0037,145.88,,,,,,,
3.25,0.00365,138.75,,,,,,,
3.26,0.00359,131.39,,,,,,,
3.27,0.00354,124.11,,,,,,,
3.29,0.00349,117.16,,,,,,,
3.3,0.00344,110.81,,,,,,,
3.33,0.00339,104.59,,,,,,,
3.46,0.00344,115.47,,,,,,,
3.49,0.00349,122.79,,,,,,,
3.52,0.00354,130.08,,,,,,,
3.56,0.00359,137.29,,,,,,,
3.6,0.00364,144.68,,,,,,,
3.65,0.00369,151.55,,,,,,,
3.71,0.00374,159.38,,,,,,,
3.77,0.00379,167.23,,,,,,,
3.8,0.00382,171.6,,,,,,,
3.82,0.00384,174.26,,,,,,,
3.87,0.0039,173.39,,,,,,,
3.87,0.00395,173.29,,,,,,,
3.88,0.00402,173.69,,,,,,,
3.88,0.00412,173.93,,,,,,,
3.88,0.00417,174.06,,,,,,,
3.88,0.00423,174.16,,,,,,,
3.88,0.00428,174.27,,,,,,,
3.88,0.00433,174.43,,,,,,,
3.88,0.00442,174.65,,,,,,,
3.89,0.00447,174.89,,,,,,,
3.94,0.00442,166.97,,,,,,,
3.96,0.00436,158.71,,,,,,,
3.97,0.00431,151.16,,,,,,,
3.99,0.00426,143.94,,,,,,,
4.01,0.00421,137.1,,,,,,,
4.03,0.00416,130.21,,,,,,,
4.06,0.00411,123.95,,,,,,,
4.18,0.00416,134.62,,,,,,,
4.21,0.00421,141.55,,,,,,,
4.25,0.00426,148.94,,,,,,,
4.28,0.00431,156.04,,,,,,,
4.33,0.00436,163.12,,,,,,,
4.38,0.00441,170.71,,,,,,,
4.43,0.00446,177.94,,,,,,,
4.47,0.00452,174.33,,,,,,,
4.53,0.00457,176.96,,,,,,,
4.62,0.00452,168.39,,,,,,,
4.66,0.00446,160.95,,,,,,,
4.69,0.00441,154.14,,,,,,,
4.73,0.00436,147.23,,,,,,,
4.77,0.00431,140.4,,,,,,,
4.8,0.00428,136.37,,,,,,,
4.82,0.00426,133.62,,,,,,,
4.88,0.00421,126.88,,,,,,,
4.94,0.00416,120.02,,,,,,,
4.99,0.00411,112.95,,,,,,,
5.05,0.00406,105.55,,,,,,,
5.11,0.00401,98.77,,,,,,,
5.16,0.00396,91.59,,,,,,,
5.22,0.00391,84.55,,,,,,,
5.27,0.00386,77.51,,,,,,,
5.32,0.00381,70.61,,,,,,,
5.38,0.00376,63.18,,,,,,,
5.44,0.00371,55.96,,,,,,,
5.49,0.00366,48.79,,,,,,,
5.55,0.00361,41.24,,,,,,,
5.59,0.00356,34.97,,,,,,,
5.65,0.00351,27.48,,,,,,,
5.71,0.00346,20.7,,,,,,,
5.76,0.00341,13.9,,,,,,,
5.8,0.00336,8.43,,,,,,,
5.81,0.00335,7.03,,,,,,,
5.87,0.0033,-0.11,,,,,,,
5.93,0.00325,-7.45,,,,,,,
5.99,0.0032,-14.66,,,,,,,
6.05,0.00315,-22.12,,,,,,,
6.21,0.0031,-28.91,,,,,,,
6.28,0.00305,-35.92,,,,,,,
6.35,0.003,-43.0,,,,,,,
6.4,0.00295,-51.9,,,,,,,
6.43,0.0029,-59.34,,,,,,,
6.46,0.00285,-66.1,,,,,,,
6.48,0.0028,-72.94,,,,,,,
6.51,0.00275,-79.83,,,,,,,
6.54,0.0027,-86.68,,,,,,,
6.57,0.00265,-93.44,,,,,,,
6.6,0.0026,-99.93,,,,,,,
6.64,0.00255,-106.5,,,,,,,
6.67,0.0025,-112.2,,,,,,,
6.71,0.00245,-117.9,,,,,,,
6.76,0.0024,-122.7,,,,,,,
6.8,0.00235,-126.9,,,,,,,
6.8,0.00234,-127.2,,,,,,,
6.84,0.0023,-130.6,,,,,,,
6.89,0.00224,-133.5,,,,,,,
6.94,0.00219,-136.3,,,,,,,
6.99,0.00214,-138.9,,,,,,,
7.03,0.00209,-141.1,,,,,,,
7.08,0.00204,-143.1,,,,,,,
7.13,0.00199,-144.8,,,,,,,
7.18,0.00194,-146.6,,,,,,,
7.24,0.00189,-148.5,,,,,,,
7.28,0.00184,-149.9,,,,,,,
7.31,0.00179,-150.7,,,,,,,
7.35,0.00174,-151.2,,,,,,,
7.48,0.00169,-153.1,,,,,,,
7.55,0.00164,-157.4,,,,,,,
7.56,0.00158,-155.6,,,,,,,
7.56,0.00152,-155.7,,,,,,,
7.57,0.00147,-156.1,,,,,,,
7.6,0.00142,-156.7,,,,,,,
7.8,0.0014,-151.1,,,,,,,
7.86,0.00137,-156.9,,,,,,,
7.9,0.00132,-163.2,,,,,,,
7.91,0.00127,-161.6,,,,,,,
7.91,0.00121,-161.5,,,,,,,
7.92,0.00116,-161.6,,,,,,,
7.92,0.00111,-161.7,,,,,,,
7.92,0.00105,-161.8,,,,,,,
7.92,0.00099,-162.0,,,,,,,
7.92,0.00093,-162.3,,,,,,,
7.94,0.00088,-162.9,,,,,,,
8.02,0.00093,-147.3,,,,,,,
8.04,0.00098,-140.2,,,,,,,
8.07,0.00103,-133.1,,,,,,,
8.25,0.00098,-142.1,,,,,,,
8.28,0.00093,-149.2,,,,,,,
8.32,0.00088,-155.8,,,,,,,
8.36,0.00083,-162.0,,,,,,,
8.4,0.00078,-168.0,,,,,,,
8.45,0.00073,-167.8,,,,,,,
8.46,0.00067,-168.2,,,,,,,
8.46,0.00062,-168.6,,,,,,,
8.47,0.00056,-169.2,,,,,,,
8.49,0.00051,-169.8,,,,,,,
8.75,0.00046,-165.6,,,,,,,
8.8,0.00041,-172.1,,,,,,,
8.8,0.00041,-172.6,,,,,,,
8.83,0.00036,-168.8,,,,,,,
8.84,0.00029,-169.3,,,,,,,
8.84,0.00024,-169.6,,,,,,,
8.84,0.00018,-169.7,,,,,,,
8.84,0.00012,-170.0,,,,,,,
8.85,7e-05,-170.8,,,,,,,
8.97,0.00012,-164.1,,,,,,,
9.14,7e-05,-171.6,,,,,,,
9.18,2e-05,-177.7,,,,,,,
9.19,-4e-05,-171.9,,,,,,,
9.2,-0.0001,-172.5,,,,,,,
9.2,-0.0002,-172.8,,,,,,,
9.2,-0.00026,-172.9,,,,,,,
9.2,-0.00031,-173.0,,,,,,,
9.2,-0.00037,-173.1,,,,,,,
9.2,-0.00042,-173.3,,,,,,,
9.2,-0.0005,-173.7,,,,,,,
9.21,-0.00055,-174.0,,,,,,,
9.21,-0.0005,-174.8,,,,,,,
9.28,-0.00045,-158.3,,,,,,,
9.3,-0.00039,-150.5,,,,,,,
9.32,-0.00034,-143.1,,,,,,,
9.34,-0.00029,-135.9,,,,,,,
9.36,-0.00024,-129.4,,,,,,,
9.52,-0.00029,-140.8,,,,,,,
9.56,-0.00034,-148.1,,,,,,,
9.59,-0.00039,-155.0,,,,,,,
9.63,-0.00044,-161.4,,,,,,,
9.67,-0.00049,-167.8,,,,,,,
9.72,-0.00054,-174.7,,,,,,,
9.78,-0.00059,-180.9,,,,,,,
9.79,-0.00067,-173.2,,,,,,,
9.79,-0.00076,-173.7,,,,,,,
9.79,-0.00082,-173.8,,,,,,,
9.79,-0.00088,-173.9,,,,,,,
9.79,-0.00095,-173.9,,,,,,,
9.79,-0.00102,-174.0,,,,,,,
9.79,-0.00109,-174.1,,,,,,,
9.79,-0.00115,-174.3,,,,,,,
9.8,-0.0012,-174.5,,,,,,,
9.8,-0.00128,-174.6,,,,,,,
9.8,-0.00129,-175.1,,,,,,,
9.81,-0.00122,-175.2,,,,,,,
9.86,-0.00117,-159.2,,,,,,,
9.87,-0.00112,-151.6,,,,,,,
9.88,-0.00107,-143.5,,,,,,,
9.9,-0.00101,-135.9,,,,,,,
9.91,-0.00096,-128.8,,,,,,,
9.93,-0.00091,-122.0,,,,,,,
9.94,-0.00086,-115.4,,,,,,,
9.97,-0.00081,-109.4,,,,,,,
10.09,-0.00086,-118.9,,,,,,,
10.12,-0.00091,-125.8,,,,,,,
10.16,-0.00096,-132.9,,,,,,,
10.19,-0.00101,-139.8,,,,,,,
10.23,-0.00106,-146.4,,,,,,,
10.28,-0.00111,-153.1,,,,,,,
10.33,-0.00116,-159.7,,,,,,,
10.39,-0.00121,-166.1,,,,,,,
10.44,-0.00127,-172.3,,,,,,,
10.5,-0.00132,-179.0,,,,,,,
10.53,-0.00138,-176.5,,,,,,,
10.53,-0.00145,-176.8,,,,,,,
10.54,-0.00151,-177.1,,,,,,,
10.54,-0.00156,-177.3,,,,,,,
10.54,-0.00162,-177.7,,,,,,,
10.66,-0.00157,-169.5,,,,,,,
10.8,-0.00158,-172.3,,,,,,,
10.84,-0.00162,-178.3,,,,,,,
10.92,-0.00168,-183.4,,,,,,,
10.93,-0.00173,-183.6,,,,,,,
10.94,-0.00178,-183.0,,,,,,,
10.95,-0.00184,-184.0,,,,,,,
10.97,-0.00189,-183.2,,,,,,,
10.97,-0.00194,-183.9,,,,,,,
10.99,-0.00199,-185.1,,,,,,,
11.26,-0.00204,-185.3,,,,,,,
11.3,-0.00211,-181.5,,,,,,,
11.3,-0.00216,-181.7,,,,,,,
11.31,-0.00226,-182.2,,,,,,,
11.31,-0.00233,-182.3,,,,,,,
11.31,-0.0024,-182.5,,,,,,,
11.31,-0.00247,-182.6,,,,,,,
11.31,-0.00254,-182.7,,,,,,,
11.31,-0.00261,-182.9,,,,,,,
11.31,-0.00267,-183.1,,,,,,,
11.31,-0.00273,-183.3,,,,,,,
11.31,-0.0028,-183.6,,,,,,,
11.32,-0.00274,-184.5,,,,,,,
11.38,-0.00269,-169.3,,,,,,,
11.39,-0.00264,-161.7,,,,,,,
11.4,-0.00259,-154.4,,,,,,,
11.42,-0.00254,-146.8,,,,,,,
11.43,-0.00248,-139.6,,,,,,,
11.44,-0.00243,-132.9,,,,,,,
11.46,-0.00238,-126.4,,,,,,,
11.48,-0.00233,-120.4,,,,,,,
11.62,-0.00238,-133.4,,,,,,,
11.65,-0.00243,-140.9,,,,,,,
11.68,-0.00248,-148.4,,,,,,,
11.72,-0.00253,-155.7,,,,,,,
11.75,-0.00258,-162.8,,,,,,,
11.8,-0.00263,-169.4,,,,,,,
11.8,-0.00264,-170.1,,,,,,,
11.85,-0.00268,-176.0,,,,,,,
11.9,-0.00273,-182.6,,,,,,,
11.96,-0.00278,-189.1,,,,,,,
11.99,-0.00283,-184.4,,,,,,,
12.0,-0.00292,-184.7,,,,,,,
12.0,-0.00303,-184.9,,,,,,,
12.0,-0.00309,-185.0,,,,,,,
12.0,-0.00316,-185.1,,,,,,,
12.0,-0.00323,-185.2,,,,,,,
12.0,-0.00329,-185.3,,,,,,,
12.0,-0.00335,-185.4,,,,,,,
12.0,-0.0034,-185.6,,,,,,,
12.01,-0.00347,-185.8,,,,,,,
12.02,-0.00342,-186.3,,,,,,,
12.07,-0.00337,-170.0,,,,,,,
12.08,-0.00332,-161.8,,,,,,,
12.09,-0.00326,-154.1,,,,,,,
12.11,-0.00321,-146.6,,,,,,,
12.12,-0.00316,-139.4,,,,,,,
12.14,-0.00311,-132.6,,,,,,,
12.16,-0.00306,-126.0,,,,,,,
12.19,-0.00301,-120.0,,,,,,,
12.29,-0.00306,-129.2,,,,,,,
12.33,-0.00311,-136.4,,,,,,,
12.36,-0.00316,-143.4,,,,,,,
12.39,-0.00321,-150.4,,,,,,,
12.43,-0.00327,-156.9,,,,,,,
12.47,-0.00332,-163.3,,,,,,,
12.52,-0.00337,-169.6,,,,,,,
12.58,-0.00342,-176.1,,,,,,,
12.64,-0.00347,-182.6,,,,,,,
12.7,-0.00352,-189.5,,,,,,,
12.74,-0.00357,-186.6,,,,,,,
12.75,-0.00362,-187.5,,,,,,,
12.79,-0.00367,-192.0,,,,,,,
12.8,-0.00369,-192.4,,,,,,,
12.82,-0.00372,-192.4,,,,,,,
12.84,-0.00378,-192.4,,,,,,,
12.99,-0.00383,-193.1,,,,,,,
13.06,-0.00388,-186.7,,,,,,,
13.06,-0.00394,-187.2,,,,,,,
13.06,-0.00399,-187.4,,,,,,,
13.06,-0.00405,-187.7,,,,,,,
13.07,-0.00411,-188.0,,,,,,,
13.36,-0.00416,-189.6,,,,,,,
13.47,-0.00421,-195.4,,,,,,,
13.49,-0.00426,-195.6,,,,,,,
13.5,-0.00432,-196.6,,,,,,,
13.51,-0.00437,-196.1,,,,,,,
13.51,-0.00442,-195.4,,,,,,,
13.51,-0.00448,-193.5,,,,,,,
13.52,-0.00455,-193.5,,,,,,,
13.52,-0.00461,-193.7,,,,,,,
13.52,-0.00468,-194.0,,,,,,,
13.52,-0.00475,-194.3,,,,,,,
13.52,-0.00481,-194.5,,,,,,,
13.53,-0.00488,-195.0,,,,,,,
13.54,-0.00493,-195.0,,,,,,,
13.55,-0.00498,-194.0,,,,,,,
13.59,-0.00493,-178.7,,,,,,,
13.6,-0.00488,-170.2,,,,,,,
13.62,-0.00483,-162.7,,,,,,,
13.63,-0.00478,-155.3,,,,,,,
13.64,-0.00472,-147.7,,,,,,,
13.66,-0.00467,-140.7,,,,,,,
13.67,-0.00462,-133.7,,,,,,,
13.69,-0.00457,-127.1,,,,,,,
13.72,-0.00452,-120.5,,,,,,,
13.77,-0.00447,-114.1,,,,,,,
13.8,-0.00445,-111.6,,,,,,,
13.88,-0.00442,-105.7,,,,,,,
13.96,-0.00437,-97.7,,,,,,,
14.01,-0.00432,-90.24,,,,,,,
14.06,-0.00427,-83.14,,,,,,,
14.11,-0.00422,-76.06,,,,,,,
14.17,-0.00417,-68.28,,,,,,,
14.22,-0.00412,-60.83,,,,,,,
14.27,-0.00407,-53.64,,,,,,,
14.33,-0.00402,-46.0,,,,,,,
14.39,-0.00397,-38.27,,,,,,,
14.44,-0.00392,-30.8,,,,,,,
14.49,-0.00386,-23.52,,,,,,,
14.54,-0.00381,-16.36,,,,,,,
14.6,-0.00376,-8.99,,,,,,,
14.65,-0.00371,-1.66,,,,,,,
14.71,-0.00366,5.78,,,,,,,
14.77,-0.00361,13.24,,,,,,,
14.8,-0.00358,18.21,,,,,,,
14.82,-0.00356,20.68,,,,,,,
14.89,-0.00351,28.63,,,,,,,
14.99,-0.00346,35.98,,,,,,,
15.05,-0.00341,43.88,,,,,,,
15.1,-0.00336,51.3,,,,,,,
15.14,-0.00331,58.23,,,,,,,
15.19,-0.00326,65.51,,,,,,,
15.25,-0.00321,72.43,,,,,,,
15.32,-0.00316,79.54,,,,,,,
15.38,-0.00311,86.75,,,,,,,
15.45,-0.00306,93.72,,,,,,,
15.5,-0.00301,100.44,,,,,,,
15.56,-0.00296,108.13,,,,,,,
15.6,-0.00291,115.58,,,,,,,
15.63,-0.00286,122.5,,,,,,,
15.66,-0.00281,128.67,,,,,,,
15.68,-0.00275,133.56,,,,,,,
15.7,-0.0027,136.79,,,,,,,
15.72,-0.00265,139.41,,,,,,,
15.74,-0.0026,141.56,,,,,,,
15.76,-0.00255,143.71,,,,,,,
15.8,-0.0025,145.46,,,,,,,
15.8,-0.0025,145.55,,,,,,,
15.92,-0.00245,147.11,,,,,,,
16.0,-0.0024,153.06,,,,,,,
16.04,-0.00235,156.88,,,,,,,
16.06,-0.00229,156.19,,,,,,,
16.06,-0.00224,156.63,,,,,,,
16.08,-0.00219,157.32,,,,,,,
16.09,-0.00214,157.25,,,,,,,
16.1,-0.00209,156.98,,,,,,,
16.38,-0.00204,156.21,,,,,,,
16.43,-0.00199,162.44,,,,,,,
16.46,-0.00193,163.93,,,,,,,
16.47,-0.00188,164.22,,,,,,,
16.49,-0.00183,166.25,,,,,,,
16.53,-0.00178,168.47,,,,,,,
16.57,-0.00173,169.02,,,,,,,
16.65,-0.00168,168.24,,,,,,,
16.77,-0.00163,172.12,,,,,,,
16.8,-0.00157,168.83,,,,,,,
16.8,-0.00152,169.08,,,,,,,
16.8,-0.00144,169.23,,,,,,,
16.8,-0.00136,169.38,,,,,,,
16.81,-0.00127,169.56,,,,,,,
16.81,-0.0012,169.83,,,,,,,
16.81,-0.00115,170.08,,,,,,,
16.88,-0.0012,161.04,,,,,,,
16.9,-0.00125,152.53,,,,,,,
16.93,-0.0013,145.23,,,,,,,
16.96,-0.00135,138.14,,,,,,,
17.12,-0.0013,145.96,,,,,,,
17.16,-0.00125,152.4,,,,,,,
17.2,-0.0012,158.91,,,,,,,
17.24,-0.00115,165.28,,,,,,,
17.29,-0.0011,171.44,,,,,,,
17.34,-0.00105,174.04,,,,,,,
17.37,-0.001,177.2,,,,,,,
17.41,-0.00095,174.95,,,,,,,
17.41,-0.00089,175.41,,,,,,,
17.42,-0.00083,175.65,,,,,,,
17.42,-0.00075,175.78,,,,,,,
17.42,-0.00067,175.9,,,,,,,
17.42,-0.0006,176.15,,,,,,,
17.42,-0.00055,176.37,,,,,,,
17.49,-0.0006,165.59,,,,,,,
17.52,-0.00065,157.58,,,,,,,
17.54,-0.0007,150.14,,,,,,,
17.57,-0.00075,143.56,,,,,,,
17.73,-0.0007,151.89,,,,,,,
17.76,-0.00065,158.82,,,,,,,
17.8,-0.0006,165.26,,,,,,,
17.8,-0.0006,165.74,,,,,,,
17.84,-0.00055,171.55,,,,,,,
17.89,-0.0005,177.98,,,,,,,
17.94,-0.00045,184.09,,,,,,,
18.0,-0.0004,180.87,,,,,,,
18.03,-0.00035,184.19,,,,,,,
18.06,-0.0003,185.82,,,,,,,
18.07,-0.00024,185.31,,,,,,,
18.07,-0.00019,185.55,,,,,,,
18.1,-0.00014,186.51,,,,,,,
18.31,-9e-05,185.39,,,,,,,
18.36,-4e-05,181.25,,,,,,,
18.37,3e-05,181.2,,,,,,,
18.37,0.00012,181.58,,,,,,,
18.37,0.00018,181.69,,,,,,,
18.37,0.00024,181.78,,,,,,,
18.37,0.0003,181.78,,,,,,,
18.37,0.00036,181.89,,,,,,,
18.37,0.00042,182.06,,,,,,,
18.38,0.0005,182.43,,,,,,,
18.38,0.00056,182.64,,,,,,,
18.38,0.00051,183.11,,,,,,,
18.43,0.00046,171.83,,,,,,,
18.45,0.00041,163.95,,,,,,,
18.47,0.00035,156.68,,,,,,,
18.49,0.0003,149.49,,,,,,,
18.51,0.00025,142.57,,,,,,,
18.53,0.0002,136.04,,,,,,,
18.69,0.00025,146.83,,,,,,,
18.72,0.0003,153.94,,,,,,,
18.75,0.00035,160.56,,,,,,,
18.79,0.0004,167.32,,,,,,,
18.8,0.00042,168.93,,,,,,,
18.84,0.00045,173.75,,,,,,,
18.89,0.0005,179.87,,,,,,,
18.94,0.00055,185.76,,,,,,,
19.0,0.00061,186.9,,,,,,,
19.0,0.00068,187.21,,,,,,,
19.01,0.00074,187.58,,,,,,,
19.01,0.00081,187.66,,,,,,,
19.01,0.00086,187.92,,,,,,,
19.01,0.00092,188.33,,,,,,,
19.12,0.00087,178.34,,,,,,,
19.18,0.00082,171.13,,,,,,,
19.3,0.00087,178.73,,,,,,,
19.34,0.00092,185.38,,,,,,,
19.38,0.00097,191.6,,,,,,,
19.41,0.00103,188.02,,,,,,,
19.41,0.00111,188.6,,,,,,,
19.41,0.00121,188.79,,,,,,,
19.42,0.00126,188.96,,,,,,,
19.42,0.00132,189.04,,,,,,,
19.42,0.00138,189.18,,,,,,,
19.42,0.00143,189.35,,,,,,,
19.42,0.00151,189.69,,,,,,,
19.42,0.00157,190.08,,,,,,,
19.43,0.00152,190.73,,,,,,,
19.49,0.00146,176.41,,,,,,,
19.51,0.00141,168.25,,,,,,,
19.53,0.00136,160.71,,,,,,,
19.55,0.00131,153.86,,,,,,,
19.57,0.00126,146.77,,,,,,,
19.62,0.00121,141.01,,,,,,,
19.71,0.00126,149.9,,,,,,,
19.74,0.00131,156.63,,,,,,,
19.77,0.00136,163.11,,,,,,,
19.8,0.00141,168.83,,,,,,,
19.81,0.00141,169.76,,,,,,,
19.85,0.00146,176.06,,,,,,,
19.89,0.00152,182.13,,,,,,,
19.95,0.00157,188.47,,,,,,,
20.01,0.00162,194.6,,,,,,,
20.05,0.00167,189.93,,,,,,,
20.06,0.00172,191.13,,,,,,,
20.13,0.00177,195.67,,,,,,,
20.14,0.00182,190.43,,,,,,,
20.14,0.00189,190.73,,,,,,,
20.14,0.00199,190.78,,,,,,,
20.14,0.00205,190.92,,,,,,,
20.14,0.00211,190.97,,,,,,,
20.15,0.00217,191.01,,,,,,,
20.15,0.00222,191.06,,,,,,,
20.15,0.0023,191.29,,,,,,,
20.15,0.00236,191.46,,,,,,,
20.16,0.0023,191.63,,,,,,,
20.21,0.00225,178.57,,,,,,,
20.22,0.0022,170.35,,,,,,,
20.24,0.00215,162.96,,,,,,,
20.26,0.00209,156.02,,,,,,,
20.27,0.00204,149.13,,,,,,,
20.29,0.00199,142.48,,,,,,,
20.33,0.00194,136.57,,,,,,,
20.44,0.00199,146.11,,,,,,,
20.47,0.00204,153.44,,,,,,,
20.5,0.00209,160.66,,,,,,,
20.54,0.00214,167.66,,,,,,,
20.58,0.00219,174.46,,,,,,,
20.62,0.00225,180.79,,,,,,,
20.67,0.0023,186.67,,,,,,,
20.72,0.00235,192.27,,,,,,,
20.79,0.0024,198.62,,,,,,,
20.8,0.00241,200.24,,,,,,,
20.82,0.00245,189.88,,,,,,,
20.83,0.00252,190.56,,,,,,,
20.83,0.00258,190.8,,,,,,,
20.83,0.00263,191.35,,,,,,,
21.09,0.00268,195.21,,,,,,,
21.14,0.00274,198.96,,,,,,,
21.15,0.0028,199.72,,,,,,,
21.15,0.00285,199.93,,,,,,,
21.16,0.0029,199.48,,,,,,,
21.17,0.00295,199.16,,,,,,,
21.21,0.003,199.22,,,,,,,
21.47,0.00305,202.81,,,,,,,
21.49,0.00313,194.26,,,,,,,
21.49,0.00322,194.72,,,,,,,
21.5,0.00328,194.93,,,,,,,
21.5,0.00336,194.97,,,,,,,
21.5,0.00344,195.14,,,,,,,
21.5,0.00353,195.26,,,,,,,
21.5,0.00362,195.33,,,,,,,
21.5,0.00371,195.48,,,,,,,
21.5,0.00378,195.63,,,,,,,
21.5,0.00384,195.82,,,,,,,
21.5,0.00393,196.15,,,,,,,
21.51,0.00386,196.85,,,,,,,
21.55,0.00381,183.45,,,,,,,
21.57,0.00376,173.39,,,,,,,
21.58,0.00371,165.96,,,,,,,
21.59,0.00365,157.78,,,,,,,
21.6,0.0036,149.71,,,,,,,
21.61,0.00355,142.69,,,,,,,
21.63,0.0035,135.58,,,,,,,
21.64,0.00345,129.18,,,,,,,
21.65,0.0034,122.35,,,,,,,
21.67,0.00334,116.09,,,,,,,
21.7,0.00329,110.54,,,,,,,
21.79,0.00335,120.05,,,,,,,
21.8,0.00336,122.16,,,,,,,
21.82,0.0034,126.92,,,,,,,
21.85,0.00345,133.65,,,,,,,
21.88,0.0035,140.23,,,,,,,
21.91,0.00355,146.98,,,,,,,
21.95,0.0036,153.43,,,,,,,
22.0,0.00365,159.33,,,,,,,
22.06,0.0037,165.59,,,,,,,
22.12,0.00375,171.64,,,,,,,
22.18,0.0038,177.6,,,,,,,
22.23,0.00385,183.09,,,,,,,
22.28,0.0039,188.8,,,,,,,
22.33,0.00395,194.35,,,,,,,
22.39,0.004,200.27,,,,,,,
22.42,0.00407,196.97,,,,,,,
22.42,0.00412,197.26,,,,,,,
22.43,0.0042,197.45,,,,,,,
22.43,0.00425,197.56,,,,,,,
22.43,0.00431,197.68,,,,,,,
22.43,0.00437,197.75,,,,,,,
22.43,0.00442,197.86,,,,,,,
22.43,0.00451,198.08,,,,,,,
22.43,0.00457,198.32,,,,,,,
22.45,0.00452,198.98,,,,,,,
22.51,0.00447,182.54,,,,,,,
22.53,0.00442,174.73,,,,,,,
22.54,0.00437,167.48,,,,,,,
22.56,0.00432,160.82,,,,,,,
22.59,0.00427,154.04,,,,,,,
22.74,0.00432,162.05,,,,,,,
22.77,0.00437,168.78,,,,,,,
22.8,0.00441,174.43,,,,,,,
22.81,0.00442,175.31,,,,,,,
22.84,0.00447,181.44,,,,,,,
22.88,0.00452,187.27,,,,,,,
22.93,0.00457,193.15,,,,,,,
22.99,0.00462,198.64,,,,,,,
23.17,0.00457,184.58,,,,,,,
23.21,0.00452,176.84,,,,,,,
23.25,0.00447,169.01,,,,,,,
23.3,0.00442,160.96,,,,,,,
23.35,0.00437,152.63,,,,,,,
23.4,0.00432,144.81,,,,,,,
23.46,0.00427,136.9,,,,,,,
23.51,0.00421,129.12,,,,,,,
23.57,0.00416,121.42,,,,,,,
23.62,0.00411,114.68,,,,,,,
23.67,0.00406,107.77,,,,,,,
23.72,0.00401,101.07,,,,,,,
23.77,0.00396,94.21,,,,,,,
23.8,0.00394,90.58,,,,,,,
23.83,0.00391,87.13,,,,,,,
23.89,0.00386,79.88,,,,,,,
23.94,0.00381,72.76,,,,,,,
24.0,0.00376,65.55,,,,,,,
24.05,0.00371,58.43,,,,,,,
24.1,0.00366,51.36,,,,,,,
24.16,0.00361,44.46,,,,,,,
24.21,0.00356,37.76,,,,,,,
24.26,0.00351,31.16,,,,,,,
24.31,0.00346,24.58,,,,,,,
24.37,0.00341,17.75,,,,,,,
24.42,0.00336,11.11,,,,,,,
24.48,0.00331,4.32,,,,,,,
24.54,0.00326,-2.86,,,,,,,
24.59,0.00321,-9.92,,,,,,,
24.64,0.00316,-16.09,,,,,,,
24.71,0.00311,-22.59,,,,,,,
24.8,0.00309,-23.9,,,,,,,
24.87,0.00306,-28.36,,,,,,,
24.94,0.00301,-35.2,,,,,,,
25.02,0.00296,-42.35,,,,,,,
25.08,0.0029,-49.58,,,,,,,
25.11,0.00285,-57.57,,,,,,,
25.13,0.0028,-64.33,,,,,,,
25.15,0.00275,-71.47,,,,,,,
25.18,0.0027,-78.43,,,,,,,
25.2,0.00265,-85.25,,,,,,,
25.23,0.0026,-91.47,,,,,,,
25.26,0.00255,-97.7,,,,,,,
25.29,0.0025,-103.5,,,,,,,
25.33,0.00245,-108.9,,,,,,,
25.37,0.0024,-114.3,,,,,,,
25.43,0.00235,-120.2,,,,,,,
25.48,0.0023,-125.9,,,,,,,
25.54,0.00225,-131.6,,,,,,,
25.59,0.0022,-137.1,,,,,,,
25.64,0.00215,-142.9,,,,,,,
25.68,0.00209,-147.2,,,,,,,
25.72,0.00204,-150.3,,,,,,,
25.75,0.00199,-152.2,,,,,,,
25.77,0.00194,-153.8,,,,,,,
25.8,0.0019,-154.6,,,,,,,
25.81,0.00189,-154.7,,,,,,,
25.93,0.00184,-155.7,,,,,,,
26.0,0.00179,-160.1,,,,,,,
26.06,0.00174,-164.8,,,,,,,
26.09,0.00169,-165.3,,,,,,,
26.1,0.00163,-165.6,,,,,,,
26.12,0.00158,-166.0,,,,,,,
26.13,0.00153,-166.1,,,,,,,
26.14,0.00148,-166.2,,,,,,,
26.17,0.00143,-165.7,,,,,,,
26.3,0.00148,-155.0,,,,,,,
26.41,0.00143,-161.2,,,,,,,
26.45,0.00138,-167.4,,,,,,,
26.5,0.00133,-173.4,,,,,,,
26.53,0.00127,-174.8,,,,,,,
26.55,0.00122,-176.6,,,,,,,
26.57,0.00117,-176.7,,,,,,,
26.57,0.00111,-176.1,,,,,,,
26.58,0.00106,-175.9,,,,,,,
26.58,0.001,-176.0,,,,,,,
26.58,0.00094,-176.1,,,,,,,
26.59,0.00089,-176.3,,,,,,,
26.69,0.00094,-157.5,,,,,,,
26.72,0.00099,-150.4,,,,,,,
26.8,0.00103,-145.7,,,,,,,
26.91,0.00094,-159.6,,,,,,,
26.95,0.00089,-166.7,,,,,,,
26.99,0.00084,-174.0,,,,,,,
27.03,0.00079,-180.9,,,,,,,
27.06,0.00073,-178.3,,,,,,,
27.06,0.00068,-178.7,,,,,,,
27.06,0.00062,-179.0,,,,,,,
27.07,0.00056,-179.6,,,,,,,
27.33,0.00051,-186.1,,,,,,,
27.36,0.00045,-184.0,,,,,,,
27.36,0.00039,-184.4,,,,,,,
27.36,0.00032,-184.7,,,,,,,
27.36,0.00022,-184.8,,,,,,,
27.36,0.00014,-185.1,,,,,,,
27.37,7e-05,-185.5,,,,,,,
27.37,1e-05,-185.8,,,,,,,
27.43,6e-05,-179.3,,,,,,,
27.46,0.00011,-171.1,,,,,,,
27.49,0.00017,-163.5,,,,,,,
27.52,0.00022,-156.2,,,,,,,
27.68,0.00017,-164.6,,,,,,,
27.72,0.00012,-171.7,,,,,,,
27.76,6e-05,-178.4,,,,,,,
27.8,1e-05,-185.0,,,,,,,
27.8,1e-05,-185.7,,,,,,,
27.84,-4e-05,-191.3,,,,,,,
27.86,-9e-05,-184.7,,,,,,,
27.86,-0.00015,-185.1,,,,,,,
27.87,-0.00023,-185.3,,,,,,,
27.87,-0.00033,-185.6,,,,,,,
27.87,-0.00042,-185.8,,,,,,,
27.87,-0.0005,-186.1,,,,,,,
27.87,-0.00056,-186.4,,,,,,,
27.93,-0.0005,-180.3,,,,,,,
27.95,-0.00045,-171.0,,,,,,,
27.97,-0.0004,-163.4,,,,,,,
27.99,-0.00035,-156.5,,,,,,,
28.02,-0.0003,-149.7,,,,,,,
28.07,-0.00025,-143.8,,,,,,,
28.16,-0.0003,-152.8,,,,,,,
28.2,-0.00035,-159.9,,,,,,,
28.23,-0.0004,-166.8,,,,,,,
28.27,-0.00045,-173.4,,,,,,,
28.3,-0.0005,-179.8,,,,,,,
28.35,-0.00055,-186.3,,,,,,,
28.4,-0.0006,-192.5,,,,,,,
28.44,-0.00055,-188.5,,,,,,,
28.48,-0.0006,-194.2,,,,,,,
28.5,-0.00065,-197.4,,,,,,,
28.52,-0.00071,-196.6,,,,,,,
28.52,-0.00077,-197.2,,,,,,,
28.55,-0.00082,-194.2,,,,,,,
28.58,-0.00087,-197.4,,,,,,,
28.59,-0.00092,-196.7,,,,,,,
28.6,-0.00098,-196.9,,,,,,,
28.8,-0.001,-189.0,,,,,,,
28.85,-0.00103,-192.1,,,,,,,
28.91,-0.00108,-198.5,,,,,,,
28.95,-0.00113,-203.0,,,,,,,
28.96,-0.0012,-194.3,,,,,,,
28.96,-0.0013,-194.9,,,,,,,
28.96,-0.00137,-195.0,,,,,,,
28.96,-0.00145,-195.1,,,,,,,
28.96,-0.00154,-195.2,,,,,,,
28.96,-0.00163,-195.3,,,,,,,
28.96,-0.00172,-195.4,,,,,,,
28.96,-0.0018,-195.6,,,,,,,
28.96,-0.00187,-195.8,,,,,,,
28.96,-0.00192,-195.9,,,,,,,
28.97,-0.002,-196.1,,,,,,,
28.97,-0.00194,-196.7,,,,,,,
28.98,-0.00189,-196.4,,,,,,,
28.99,-0.00194,-195.3,,,,,,,
29.01,-0.00189,-183.5,,,,,,,
29.03,-0.00183,-174.3,,,,,,,
29.04,-0.00178,-165.6,,,,,,,
29.05,-0.00173,-157.4,,,,,,,
29.06,-0.00167,-149.3,,,,,,,
29.07,-0.00162,-142.1,,,,,,,
29.08,-0.00157,-134.7,,,,,,,
29.09,-0.00152,-127.5,,,,,,,
29.11,-0.00146,-120.7,,,,,,,
29.12,-0.00141,-114.2,,,,,,,
29.14,-0.00136,-108.2,,,,,,,
29.26,-0.00141,-118.0,,,,,,,
29.29,-0.00146,-124.7,,,,,,,
29.32,-0.00152,-131.5,,,,,,,
29.35,-0.00157,-137.9,,,,,,,
29.39,-0.00162,-144.4,,,,,,,
29.43,-0.00167,-150.3,,,,,,,
29.48,-0.00172,-155.9,,,,,,,
29.54,-0.00177,-161.6,,,,,,,
29.6,-0.00182,-167.5,,,,,,,
29.66,-0.00187,-173.7,,,,,,,
29.71,-0.00192,-179.8,,,,,,,
29.76,-0.00197,-185.9,,,,,,,
29.8,-0.00201,-190.4,,,,,,,
29.81,-0.00202,-191.4,,,,,,,
29.87,-0.00207,-197.3,,,,,,,
29.92,-0.00212,-203.0,,,,,,,
29.95,-0.00218,-198.2,,,,,,,
29.95,-0.00223,-198.6,,,,,,,
29.96,-0.00232,-198.8,,,,,,,
29.96,-0.00242,-199.0,,,,,,,
29.96,-0.00247,-199.0,,,,,,,
29.96,-0.00256,-199.3,,,,,,,
29.96,-0.00263,-199.6,,,,,,,
30.03,-0.00258,-188.8,,,,,,,
30.05,-0.00253,-181.0,,,,,,,
30.07,-0.00248,-173.2,,,,,,,
30.09,-0.00243,-165.9,,,,,,,
30.12,-0.00238,-159.0,,,,,,,
30.27,-0.00243,-166.9,,,,,,,
30.3,-0.00248,-173.4,,,,,,,
30.33,-0.00253,-179.4,,,,,,,
30.37,-0.00258,-185.6,,,,,,,
30.41,-0.00263,-191.1,,,,,,,
30.46,-0.00268,-196.7,,,,,,,
30.52,-0.00273,-202.3,,,,,,,
30.58,-0.00278,-208.0,,,,,,,
30.65,-0.00284,-207.5,,,,,,,
30.65,-0.00289,-207.3,,,,,,,
30.66,-0.00295,-207.6,,,,,,,
30.66,-0.00301,-207.8,,,,,,,
30.67,-0.00306,-208.1,,,,,,,
30.68,-0.00311,-207.8,,,,,,,
30.68,-0.00317,-207.6,,,,,,,
30.69,-0.00322,-207.5,,,,,,,
30.7,-0.00329,-198.5,,,,,,,
30.7,-0.00334,-198.4,,,,,,,
30.7,-0.00343,-198.5,,,,,,,
30.7,-0.00349,-198.4,,,,,,,
30.7,-0.00354,-198.3,,,,,,,
30.7,-0.0036,-198.1,,,,,,,
30.71,-0.00366,-198.1,,,,,,,
30.71,-0.00371,-198.0,,,,,,,
30.71,-0.00379,-198.0,,,,,,,
30.74,-0.00373,-186.4,,,,,,,
30.75,-0.00368,-175.7,,,,,,,
30.76,-0.00363,-168.2,,,,,,,
30.77,-0.00358,-159.6,,,,,,,
30.78,-0.00353,-151.9,,,,,,,
30.79,-0.00347,-144.0,,,,,,,
30.8,-0.00342,-135.8,,,,,,,
30.8,-0.00339,-132.5,,,,,,,
30.81,-0.00336,-128.6,,,,,,,
30.82,-0.00331,-121.2,,,,,,,
30.83,-0.00326,-114.6,,,,,,,
30.84,-0.00321,-107.6,,,,,,,
30.85,-0.00315,-100.9,,,,,,,
30.87,-0.0031,-94.77,,,,,,,
31.0,-0.00315,-106.6,,,,,,,
31.03,-0.0032,-113.6,,,,,,,
31.05,-0.00325,-120.6,,,,,,,
31.08,-0.0033,-127.0,,,,,,,
31.11,-0.00335,-133.5,,,,,,,
31.16,-0.0034,-140.4,,,,,,,
31.21,-0.00345,-146.8,,,,,,,
31.27,-0.0035,-153.4,,,,,,,
31.33,-0.00356,-159.6,,,,,,,
31.38,-0.00361,-165.8,,,,,,,
31.44,-0.00366,-171.9,,,,,,,
31.49,-0.00371,-178.4,,,,,,,
31.55,-0.00376,-185.5,,,,,,,
31.6,-0.00381,-191.8,,,,,,,
31.65,-0.00386,-198.1,,,,,,,
31.7,-0.00391,-204.1,,,,,,,
31.75,-0.00396,-209.5,,,,,,,
31.76,-0.00402,-204.4,,,,,,,
31.76,-0.00408,-204.7,,,,,,,
31.77,-0.00418,-204.9,,,,,,,
31.77,-0.00423,-205.0,,,,,,,
31.77,-0.00428,-205.1,,,,,,,
31.77,-0.00434,-205.2,,,,,,,
31.77,-0.00442,-205.4,,,,,,,
31.77,-0.00448,-205.7,,,,,,,
31.8,-0.00447,-204.5,,,,,,,
31.83,-0.00443,-195.8,,,,,,,
31.85,-0.00438,-186.9,,,,,,,
31.87,-0.00433,-179.1,,,,,,,
31.89,-0.00428,-172.0,,,,,,,
31.91,-0.00423,-165.2,,,,,,,
31.95,-0.00418,-158.0,,,,,,,
32.07,-0.00423,-166.1,,,,,,,
32.11,-0.00428,-173.3,,,,,,,
32.14,-0.00433,-180.2,,,,,,,
32.17,-0.00438,-186.5,,,,,,,
32.21,-0.00443,-192.3,,,,,,,
32.26,-0.00448,-198.1,,,,,,,
32.31,-0.00453,-203.7,,,,,,,
32.36,-0.00458,-208.5,,,,,,,
32.42,-0.00463,-212.7,,,,,,,
32.56,-0.00458,-197.6,,,,,,,
32.6,-0.00453,-189.8,,,,,,,
32.64,-0.00448,-181.9,,,,,,,
32.68,-0.00443,-173.6,,,,,,,
32.73,-0.00438,-165.7,,,,,,,
32.78,-0.00433,-157.8,,,,,,,
32.8,-0.00431,-154.7,,,,,,,
32.84,-0.00428,-149.2,,,,,,,
32.9,-0.00423,-140.9,,,,,,,
32.96,-0.00418,-132.5,,,,,,,
33.01,-0.00413,-124.6,,,,,,,
33.06,-0.00408,-116.9,,,,,,,
33.11,-0.00402,-109.2,,,,,,,
33.17,-0.00397,-101.5,,,,,,,
33.22,-0.00392,-93.86,,,,,,,
33.28,-0.00387,-86.23,,,,,,,
33.33,-0.00382,-78.74,,,,,,,
33.38,-0.00377,-71.84,,,,,,,
33.43,-0.00372,-64.78,,,,,,,
33.48,-0.00367,-58.42,,,,,,,
33.53,-0.00362,-51.82,,,,,,,
33.59,-0.00357,-45.29,,,,,,,
33.64,-0.00352,-38.93,,,,,,,
33.69,-0.00347,-32.66,,,,,,,
33.74,-0.00342,-26.72,,,,,,,
33.8,-0.00337,-20.5,,,,,,,
33.8,-0.00336,-19.85,,,,,,,
33.85,-0.00332,-13.85,,,,,,,
33.91,-0.00327,-7.64,,,,,,,
33.96,-0.00322,-1.43,,,,,,,
34.01,-0.00317,4.94,,,,,,,
34.07,-0.00312,11.74,,,,,,,
34.13,-0.00307,18.5,,,,,,,
34.18,-0.00302,25.13,,,,,,,
34.26,-0.00297,30.53,,,,,,,
34.34,-0.00292,36.87,,,,,,,
34.38,-0.00287,43.88,,,,,,,
34.42,-0.00282,50.07,,,,,,,
34.46,-0.00277,56.01,,,,,,,
34.52,-0.00272,61.61,,,,,,,
34.59,-0.00266,67.5,,,,,,,
34.66,-0.00261,73.31,,,,,,,
34.72,-0.00256,79.5,,,,,,,
34.79,-0.00251,85.96,,,,,,,
34.8,-0.0025,87.68,,,,,,,
34.85,-0.00246,92.51,,,,,,,
34.9,-0.00241,98.98,,,,,,,
34.95,-0.00236,105.75,,,,,,,
34.99,-0.00231,112.43,,,,,,,
35.02,-0.00226,118.85,,,,,,,
35.05,-0.00221,125.33,,,,,,,
35.08,-0.00216,131.47,,,,,,,
35.12,-0.00211,137.19,,,,,,,
35.15,-0.00206,142.64,,,,,,,
35.19,-0.00201,147.57,,,,,,,
35.23,-0.00196,151.83,,,,,,,
35.26,-0.00191,154.5,,,,,,,
35.29,-0.00185,156.42,,,,,,,
35.33,-0.0018,158.02,,,,,,,
35.4,-0.00175,159.61,,,,,,,
35.48,-0.0017,162.98,,,,,,,
35.54,-0.00165,167.0,,,,,,,
35.58,-0.0016,168.71,,,,,,,
35.6,-0.00155,168.96,,,,,,,
35.62,-0.0015,169.8,,,,,,,
35.65,-0.00145,170.68,,,,,,,
35.7,-0.0014,170.64,,,,,,,
35.8,-0.00137,169.36,,,,,,,
35.86,-0.00134,171.44,,,,,,,
35.92,-0.00129,176.8,,,,,,,
35.95,-0.00124,178.06,,,,,,,
35.95,-0.00119,177.6,,,,,,,
35.96,-0.00113,177.79,,,,,,,
35.96,-0.00106,177.99,,,,,,,
35.96,-0.001,178.25,,,,,,,
35.98,-0.00095,178.9,,,,,,,
36.09,-0.001,161.19,,,,,,,
36.29,-0.00095,167.22,,,,,,,
36.33,-0.0009,173.47,,,,,,,
36.37,-0.00085,179.67,,,,,,,
36.41,-0.0008,185.44,,,,,,,
36.43,-0.00074,181.66,,,,,,,
36.46,-0.00069,183.69,,,,,,,
36.49,-0.00064,184.65,,,,,,,
36.57,-0.00059,186.77,,,,,,,
36.64,-0.00054,189.43,,,,,,,
36.68,-0.00049,188.15,,,,,,,
36.68,-0.00043,188.3,,,,,,,
36.68,-0.00037,188.44,,,,,,,
36.69,-0.00031,188.66,,,,,,,
36.8,-0.00031,181.18,,,,,,,
36.98,-0.00026,187.16,,,,,,,
37.02,-0.00021,193.35,,,,,,,
37.04,-0.00015,189.29,,,,,,,
37.04,-9e-05,189.55,,,,,,,
37.05,0.0,189.93,,,,,,,
37.05,7e-05,190.06,,,,,,,
37.05,0.00013,190.22,,,,,,,
37.05,0.0002,190.28,,,,,,,
37.05,0.00027,190.43,,,,,,,
37.05,0.00033,190.6,,,,,,,
37.05,0.00038,190.73,,,,,,,
37.05,0.00046,191.07,,,,,,,
76.07,1e-05,202.37,,,,,,,
76.12,6e-05,207.81,,,,,,,
76.17,0.00011,213.11,,,,,,,
76.18,0.00018,208.04,,,,,,,
76.18,0.00026,208.38,,,,,,,
76.19,0.00036,208.56,,,,,,,
76.19,0.00041,208.62,,,,,,,
76.19,0.00047,208.75,,,,,,,
76.19,0.00052,208.9,,,,,,,
76.19,0.0006,209.15,,,,,,,
76.19,0.00066,209.36,,,,,,,
76.2,0.0006,210.03,,,,,,,
76.27,0.00055,192.23,,,,,,,
76.29,0.0005,184.73,,,,,,,
76.31,0.00044,176.91,,,,,,,
76.33,0.00039,170.0,,,,,,,
76.37,0.00034,163.6,,,,,,,
76.49,0.00039,171.93,,,,,,,
76.52,0.00044,178.41,,,,,,,
76.56,0.00049,184.79,,,,,,,
76.59,0.00055,190.99,,,,,,,
76.63,0.0006,197.0,,,,,,,
76.68,0.00065,202.61,,,,,,,
76.73,0.0007,207.65,,,,,,,
76.79,0.00075,213.15,,,,,,,
76.8,0.00076,214.42,,,,,,,
76.85,0.0008,208.79,,,,,,,
76.85,0.00086,208.86,,,,,,,
76.86,0.00091,209.22,,,,,,,
76.9,0.00096,212.15,,,,,,,
77.05,0.00101,214.0,,,,,,,
77.11,0.00106,218.74,,,,,,,
77.15,0.00112,209.1,,,,,,,
77.15,0.00117,209.8,,,,,,,
77.16,0.00123,209.97,,,,,,,
77.16,0.00129,209.98,,,,,,,
77.16,0.00134,210.34,,,,,,,
77.16,0.00139,210.64,,,,,,,
77.28,0.00134,201.53,,,,,,,
77.46,0.00139,204.17,,,,,,,
77.5,0.00144,209.71,,,,,,,
77.54,0.00149,215.37,,,,,,,
77.61,0.00155,215.92,,,,,,,
77.61,0.0016,216.29,,,,,,,
77.61,0.00167,216.41,,,,,,,
77.62,0.00174,216.7,,,,,,,
77.62,0.00182,216.92,,,,,,,
77.62,0.00188,217.12,,,,,,,
77.74,0.00183,202.34,,,,,,,
77.8,0.00178,194.54,,,,,,,
77.95,0.00188,204.76,,,,,,,
77.99,0.00193,210.94,,,,,,,
78.03,0.00198,216.2,,,,,,,
78.07,0.00203,221.26,,,,,,,
78.1,0.00208,223.41,,,,,,,
78.11,0.00214,223.87,,,,,,,
78.11,0.00219,224.4,,,,,,,
78.13,0.00226,222.61,,,,,,,
78.13,0.00233,222.73,,,,,,,
78.13,0.0024,222.84,,,,,,,
78.24,0.00235,205.7,,,,,,,
78.29,0.0023,196.98,,,,,,,
78.42,0.00235,202.24,,,,,,,
78.46,0.0024,208.31,,,,,,,
78.5,0.00245,214.19,,,,,,,
78.54,0.0025,219.3,,,,,,,
78.58,0.00255,224.26,,,,,,,
78.62,0.0026,229.0,,,,,,,
78.71,0.00265,220.41,,,,,,,
78.71,0.00271,220.82,,,,,,,
78.72,0.00277,221.19,,,,,,,
78.72,0.00284,221.47,,,,,,,
78.72,0.00292,221.71,,,,,,,
78.72,0.00297,222.13,,,,,,,
78.8,0.00299,217.17,,,,,,,
78.86,0.00292,206.1,,,,,,,
79.03,0.00297,208.29,,,,,,,
79.07,0.00302,213.8,,,,,,,
79.11,0.00308,219.29,,,,,,,
79.16,0.00313,224.55,,,,,,,
79.21,0.00318,229.49,,,,,,,
79.26,0.00323,234.11,,,,,,,
79.27,0.0033,220.38,,,,,,,
79.27,0.00336,220.63,,,,,,,
79.27,0.00341,220.69,,,,,,,
79.28,0.00335,221.92,,,,,,,
79.29,0.0033,222.08,,,,,,,
79.31,0.00335,223.14,,,,,,,
79.42,0.0034,225.8,,,,,,,
79.48,0.00345,229.24,,,,,,,
79.53,0.0035,232.27,,,,,,,
79.58,0.00355,229.44,,,,,,,
79.58,0.00363,222.34,,,,,,,
79.58,0.00374,222.78,,,,,,,
79.58,0.00382,223.0,,,,,,,
79.58,0.00392,223.03,,,,,,,
79.58,0.00403,223.08,,,,,,,
79.59,0.00415,222.96,,,,,,,
79.59,0.00426,222.92,,,,,,,
79.59,0.00437,223.13,,,,,,,
79.59,0.00447,223.31,,,,,,,
79.59,0.00455,223.46,,,,,,,
79.59,0.00462,223.53,,,,,,,
79.59,0.00469,223.38,,,,,,,
79.6,0.00463,223.52,,,,,,,
79.6,0.00457,223.39,,,,,,,
79.64,0.00452,202.71,,,,,,,
79.65,0.00446,193.9,,,,,,,
79.66,0.00441,185.93,,,,,,,
79.66,0.00436,178.29,,,,,,,
79.67,0.0043,170.05,,,,,,,
79.68,0.00425,161.92,,,,,,,
79.69,0.0042,154.27,,,,,,,
79.69,0.00415,147.46,,,,,,,
79.7,0.00409,139.94,,,,,,,
79.71,0.00404,132.41,,,,,,,
79.72,0.00398,125.0,,,,,,,
79.73,0.00393,118.42,,,,,,,
79.74,0.00388,112.04,,,,,,,
79.75,0.00383,105.29,,,,,,,
79.76,0.00378,99.04,,,,,,,
79.78,0.00373,93.5,,,,,,,
79.8,0.0037,91.24,,,,,,,
79.88,0.00378,104.34,,,,,,,
79.91,0.00383,111.54,,,,,,,
79.93,0.00388,117.61,,,,,,,
79.95,0.00393,123.89,,,,,,,
79.98,0.00398,130.24,,,,,,,
80.01,0.00403,136.0,,,,,,,
80.05,0.00408,141.37,,,,,,,
80.11,0.00413,146.6,,,,,,,
80.18,0.00418,152.24,,,,,,,
80.25,0.00423,158.63,,,,,,,
80.3,0.00428,164.68,,,,,,,
80.35,0.00434,170.64,,,,,,,
80.41,0.00439,176.67,,,,,,,
80.46,0.00444,182.49,,,,,,,
80.51,0.00449,188.04,,,,,,,
80.55,0.00454,193.17,,,,,,,
80.61,0.00459,198.56,,,,,,,
80.66,0.00464,204.21,,,,,,,
80.72,0.00469,209.6,,,,,,,
80.77,0.00474,214.7,,,,,,,
80.8,0.00478,218.49,,,,,,,
80.81,0.00479,219.5,,,,,,,
80.86,0.00484,224.35,,,,,,,
80.92,0.00489,229.26,,,,,,,
80.98,0.00494,231.71,,,,,,,
81.1,0.00489,216.56,,,,,,,
81.14,0.00484,207.06,,,,,,,
81.18,0.00479,198.01,,,,,,,
81.22,0.00474,189.75,,,,,,,
81.26,0.00469,181.86,,,,,,,
81.31,0.00464,174.11,,,,,,,
81.37,0.00459,165.54,,,,,,,
81.43,0.00454,157.33,,,,,,,
81.48,0.00449,149.43,,,,,,,
81.54,0.00444,141.22,,,,,,,
81.6,0.00438,132.63,,,,,,,
81.64,0.00433,125.61,,,,,,,
81.69,0.00428,118.87,,,,,,,
81.74,0.00423,111.82,,,,,,,
81.8,0.00418,104.21,,,,,,,
81.8,0.00418,103.84,,,,,,,
81.86,0.00413,96.76,,,,,,,
81.91,0.00408,89.39,,,,,,,
81.96,0.00403,82.02,,,,,,,
82.02,0.00398,74.56,,,,,,,
82.08,0.00393,66.49,,,,,,,
82.13,0.00388,59.04,,,,,,,
82.19,0.00383,51.36,,,,,,,
82.24,0.00378,43.84,,,,,,,
82.29,0.00373,36.7,,,,,,,
82.35,0.00368,29.37,,,,,,,
82.4,0.00363,21.88,,,,,,,
82.46,0.00358,14.65,,,,,,,
82.51,0.00353,7.17,,,,,,,
82.57,0.00348,0.1,,,,,,,
82.62,0.00343,-6.22,,,,,,,
82.66,0.00338,-12.23,,,,,,,
82.72,0.00333,-18.3,,,,,,,
82.78,0.00328,-23.53,,,,,,,
82.8,0.00327,-23.98,,,,,,,
82.95,0.00323,-28.25,,,,,,,
83.02,0.00318,-34.42,,,,,,,
83.08,0.00313,-40.27,,,,,,,
83.14,0.00307,-46.72,,,,,,,
83.18,0.00302,-54.06,,,,,,,
83.2,0.00297,-61.34,,,,,,,
83.23,0.00292,-68.11,,,,,,,
83.25,0.00287,-74.9,,,,,,,
83.28,0.00282,-81.3,,,,,,,
83.3,0.00277,-87.41,,,,,,,
83.33,0.00272,-93.48,,,,,,,
83.37,0.00267,-99.11,,,,,,,
83.4,0.00261,-104.6,,,,,,,
83.45,0.00256,-109.6,,,,,,,
83.5,0.00251,-114.8,,,,,,,
83.55,0.00246,-120.0,,,,,,,
83.6,0.00241,-124.8,,,,,,,
83.65,0.00236,-129.5,,,,,,,
83.7,0.00231,-134.1,,,,,,,
83.75,0.00226,-138.9,,,,,,,
83.8,0.00221,-143.1,,,,,,,
83.81,0.00221,-143.4,,,,,,,
83.86,0.00216,-147.9,,,,,,,
83.91,0.00211,-152.5,,,,,,,
83.96,0.00206,-157.1,,,,,,,
84.01,0.00201,-161.4,,,,,,,
84.07,0.00196,-166.0,,,,,,,
84.12,0.00191,-170.1,,,,,,,
84.17,0.00186,-174.2,,,,,,,
84.22,0.00181,-178.0,,,,,,,
84.26,0.00175,-180.7,,,,,,,
84.28,0.0017,-181.3,,,,,,,
84.29,0.00165,-181.9,,,,,,,
84.39,0.0016,-181.7,,,,,,,
84.49,0.00155,-185.0,,,,,,,
84.54,0.0015,-189.2,,,,,,,
84.58,0.00144,-190.3,,,,,,,
84.58,0.00139,-190.9,,,,,,,
84.63,0.00134,-191.9,,,,,,,
84.71,0.00129,-192.9,,,,,,,
84.78,0.00124,-195.0,,,,,,,
84.8,0.00122,-196.1,,,,,,,
84.83,0.00119,-195.6,,,,,,,
84.84,0.00113,-195.5,,,,,,,
84.86,0.00108,-196.6,,,,,,,
84.96,0.00103,-196.7,,,,,,,
85.06,0.00098,-199.2,,,,,,,
85.1,0.00093,-200.1,,,,,,,
85.1,0.00088,-200.4,,,,,,,
85.11,0.00082,-200.7,,,,,,,
85.11,0.00077,-201.0,,,,,,,
85.33,0.00072,-195.4,,,,,,,
85.4,0.00067,-200.0,,,,,,,
85.45,0.00061,-205.2,,,,,,,
85.49,0.00056,-204.3,,,,,,,
85.53,0.00051,-202.8,,,,,,,
85.53,0.00044,-203.7,,,,,,,
85.54,0.00037,-204.0,,,,,,,
85.54,0.00032,-204.2,,,,,,,
85.54,0.00026,-204.5,,,,,,,
85.8,0.00027,-192.6,,,,,,,
85.86,0.00021,-199.4,,,,,,,
85.91,0.00016,-205.2,,,,,,,
85.95,0.00011,-210.7,,,,,,,
86.0,5e-05,-206.6,,,,,,,
86.0,-0.0,-207.1,,,,,,,
86.0,-7e-05,-207.3,,,,,,,
86.0,-0.00014,-207.4,,,,,,,
86.0,-0.00022,-207.6,,,,,,,
86.01,-0.00027,-208.0,,,,,,,
86.13,-0.00022,-191.5,,,,,,,
86.18,-0.00017,-183.0,,,,,,,
86.31,-0.00022,-188.5,,,,,,,
86.35,-0.00027,-194.5,,,,,,,
86.38,-0.00032,-200.3,,,,,,,
86.42,-0.00037,-205.9,,,,,,,
86.47,-0.00042,-211.3,,,,,,,
86.51,-0.00047,-216.3,,,,,,,
86.54,-0.00053,-213.0,,,,,,,
86.54,-0.00061,-213.4,,,,,,,
86.54,-0.00068,-213.6,,,,,,,
86.54,-0.00075,-213.7,,,,,,,
86.55,-0.00082,-213.9,,,,,,,
86.55,-0.00087,-214.1,,,,,,,
86.62,-0.00082,-204.9,,,,,,,
86.66,-0.00077,-195.9,,,,,,,
86.7,-0.00072,-187.9,,,,,,,
86.8,-0.00072,-186.1,,,,,,,
86.86,-0.00077,-192.8,,,,,,,
86.9,-0.00082,-199.0,,,,,,,
86.93,-0.00087,-204.9,,,,,,,
86.97,-0.00092,-210.3,,,,,,,
87.01,-0.00097,-215.2,,,,,,,
87.06,-0.00102,-219.7,,,,,,,
87.1,-0.00108,-221.1,,,,,,,
87.11,-0.00113,-221.7,,,,,,,
87.16,-0.00119,-218.0,,,,,,,
87.17,-0.00124,-218.1,,,,,,,
87.17,-0.00129,-218.3,,,,,,,
87.4,-0.00134,-215.1,,,,,,,
87.46,-0.00139,-220.0,,,,,,,
87.51,-0.00144,-225.7,,,,,,,
87.53,-0.0015,-223.2,,,,,,,
87.53,-0.00157,-223.7,,,,,,,
87.54,-0.00164,-223.8,,,,,,,
87.54,-0.00172,-224.1,,,,,,,
87.54,-0.00178,-224.3,,,,,,,
87.54,-0.00184,-224.6,,,,,,,
87.63,-0.00179,-213.5,,,,,,,
87.67,-0.00174,-205.1,,,,,,,
87.8,-0.00172,-200.1,,,,,,,
87.87,-0.00179,-208.0,,,,,,,
87.91,-0.00184,-213.7,,,,,,,
87.95,-0.00189,-219.8,,,,,,,
87.99,-0.00194,-224.6,,,,,,,
88.08,-0.00199,-226.0,,,,,,,
88.1,-0.00205,-225.1,,,,,,,
88.1,-0.0021,-225.7,,,,,,,
88.11,-0.00215,-226.5,,,,,,,
88.13,-0.00221,-224.4,,,,,,,
88.13,-0.00227,-224.6,,,,,,,
88.13,-0.00234,-224.8,,,,,,,
88.13,-0.00241,-225.1,,,,,,,
88.25,-0.00236,-206.6,,,,,,,
88.29,-0.00231,-198.8,,,,,,,
88.44,-0.00236,-203.6,,,,,,,
88.48,-0.00241,-209.8,,,,,,,
88.51,-0.00246,-215.3,,,,,,,
88.55,-0.00251,-220.6,,,,,,,
88.59,-0.00256,-225.7,,,,,,,
88.64,-0.00261,-230.6,,,,,,,
88.68,-0.00266,-233.9,,,,,,,
88.71,-0.0026,-227.0,,,,,,,
88.72,-0.00255,-227.5,,,,,,,
88.75,-0.0026,-232.0,,,,,,,
88.77,-0.00266,-228.6,,,,,,,
88.77,-0.00272,-229.2,,,,,,,
88.78,-0.00277,-229.6,,,,,,,
88.78,-0.00283,-230.1,,,,,,,
88.78,-0.0029,-230.7,,,,,,,
88.8,-0.00295,-229.2,,,,,,,
88.8,-0.00296,-229.5,,,,,,,
88.81,-0.00302,-229.9,,,,,,,
88.81,-0.00308,-229.9,,,,,,,
88.81,-0.00316,-230.1,,,,,,,
88.81,-0.00324,-230.2,,,,,,,
88.81,-0.0033,-230.3,,,,,,,
88.82,-0.00336,-230.5,,,,,,,
88.86,-0.00331,-220.1,,,,,,,
88.88,-0.00326,-210.4,,,,,,,
88.9,-0.00321,-202.2,,,,,,,
88.92,-0.00316,-193.6,,,,,,,
88.93,-0.0031,-186.6,,,,,,,
88.95,-0.00305,-179.3,,,,,,,
88.97,-0.003,-172.7,,,,,,,
89.01,-0.00295,-165.7,,,,,,,
89.1,-0.003,-173.2,,,,,,,
89.13,-0.00305,-180.0,,,,,,,
89.17,-0.0031,-187.1,,,,,,,
89.2,-0.00316,-193.7,,,,,,,
89.24,-0.00321,-199.8,,,,,,,
89.28,-0.00326,-205.5,,,,,,,
89.32,-0.00331,-210.5,,,,,,,
89.37,-0.00336,-215.4,,,,,,,
89.43,-0.00341,-220.3,,,,,,,
89.49,-0.00346,-225.3,,,,,,,
89.54,-0.00351,-229.9,,,,,,,
89.59,-0.00356,-234.0,,,,,,,
89.64,-0.00361,-238.1,,,,,,,
89.68,-0.00367,-226.9,,,,,,,
89.68,-0.00376,-226.8,,,,,,,
89.68,-0.00381,-227.0,,,,,,,
89.68,-0.00387,-227.0,,,,,,,
89.68,-0.00394,-227.1,,,,,,,
89.68,-0.00401,-227.1,,,,,,,
89.69,-0.00408,-227.1,,,,,,,
89.69,-0.00414,-227.1,,,,,,,
89.69,-0.0042,-227.3,,,,,,,
89.69,-0.00426,-227.4,,,,,,,
89.69,-0.00433,-227.6,,,,,,,
89.74,-0.00428,-215.3,,,,,,,
89.75,-0.00423,-207.9,,,,,,,
89.77,-0.00417,-198.2,,,,,,,
89.78,-0.00412,-190.7,,,,,,,
89.79,-0.00407,-183.5,,,,,,,
89.8,-0.00403,-177.3,,,,,,,
89.81,-0.00402,-175.5,,,,,,,
89.82,-0.00397,-169.1,,,,,,,
89.83,-0.00392,-161.9,,,,,,,
89.85,-0.00387,-155.8,,,,,,,
89.89,-0.00382,-149.9,,,,,,,
89.98,-0.00387,-159.6,,,,,,,
90.01,-0.00392,-167.4,,,,,,,
90.04,-0.00397,-174.3,,,,,,,
90.07,-0.00402,-181.2,,,,,,,
90.1,-0.00407,-187.8,,,,,,,
90.14,-0.00412,-193.9,,,,,,,
90.18,-0.00417,-199.6,,,,,,,
90.24,-0.00422,-205.6,,,,,,,
90.29,-0.00427,-211.2,,,,,,,
90.35,-0.00432,-216.9,,,,,,,
90.41,-0.00437,-222.8,,,,,,,
90.46,-0.00442,-228.4,,,,,,,
90.51,-0.00447,-234.1,,,,,,,
90.56,-0.00453,-239.4,,,,,,,
90.59,-0.00459,-232.6,,,,,,,
90.59,-0.00466,-232.9,,,,,,,
90.59,-0.00476,-233.1,,,,,,,
90.59,-0.00482,-233.2,,,,,,,
90.59,-0.00488,-233.3,,,,,,,
90.6,-0.00494,-233.3,,,,,,,
90.6,-0.005,-233.4,,,,,,,
90.6,-0.00505,-233.5,,,,,,,
90.6,-0.00513,-233.8,,,,,,,
90.6,-0.00519,-234.0,,,,,,,
90.61,-0.00513,-234.3,,,,,,,
90.66,-0.00508,-217.4,,,,,,,
90.68,-0.00503,-208.5,,,,,,,
90.7,-0.00497,-200.5,,,,,,,
90.71,-0.00492,-192.5,,,,,,,
90.73,-0.00487,-185.4,,,,,,,
90.75,-0.00482,-178.3,,,,,,,
90.77,-0.00477,-172.1,,,,,,,
90.8,-0.00473,-167.8,,,,,,,
90.91,-0.00482,-182.1,,,,,,,
90.95,-0.00487,-188.9,,,,,,,
90.99,-0.00492,-194.4,,,,,,,
91.14,-0.00487,-181.1,,,,,,,
91.17,-0.00482,-173.7,,,,,,,
91.2,-0.00477,-166.7,,,,,,,
91.24,-0.00472,-159.8,,,,,,,
91.28,-0.00467,-153.3,,,,,,,
91.33,-0.00462,-146.8,,,,,,,
91.38,-0.00457,-140.7,,,,,,,
91.44,-0.00452,-134.3,,,,,,,
91.5,-0.00447,-127.4,,,,,,,
91.56,-0.00441,-120.1,,,,,,,
91.62,-0.00436,-112.9,,,,,,,
91.67,-0.00431,-106.2,,,,,,,
91.72,-0.00426,-99.5,,,,,,,
91.77,-0.00421,-92.66,,,,,,,
91.8,-0.00419,-89.14,,,,,,,
91.83,-0.00416,-86.05,,,,,,,
91.88,-0.00411,-79.21,,,,,,,
91.94,-0.00406,-72.19,,,,,,,
92.0,-0.00401,-64.75,,,,,,,
92.05,-0.00396,-57.72,,,,,,,
92.1,-0.00391,-50.89,,,,,,,
92.16,-0.00386,-43.61,,,,,,,
92.21,-0.00381,-36.04,,,,,,,
92.28,-0.00376,-27.56,,,,,,,
92.33,-0.00371,-19.53,,,,,,,
92.38,-0.00366,-12.22,,,,,,,
92.43,-0.00361,-5.54,,,,,,,
92.48,-0.00355,0.79,,,,,,,
92.53,-0.0035,6.69,,,,,,,
92.58,-0.00345,13.5,,,,,,,
92.65,-0.0034,20.43,,,,,,,
92.7,-0.00335,26.07,,,,,,,
92.78,-0.0033,30.93,,,,,,,
92.8,-0.00329,32.82,,,,,,,
92.85,-0.00325,37.01,,,,,,,
92.89,-0.0032,43.59,,,,,,,
92.93,-0.00315,49.44,,,,,,,
92.98,-0.0031,54.95,,,,,,,
93.03,-0.00305,59.98,,,,,,,
93.1,-0.003,65.18,,,,,,,
93.17,-0.00295,70.91,,,,,,,
93.24,-0.0029,77.18,,,,,,,
93.3,-0.00285,83.14,,,,,,,
93.35,-0.0028,89.01,,,,,,,
93.41,-0.00275,95.08,,,,,,,
93.46,-0.0027,101.8,,,,,,,
93.5,-0.00265,108.66,,,,,,,
93.54,-0.0026,115.29,,,,,,,
93.57,-0.00254,122.08,,,,,,,
93.61,-0.00249,128.43,,,,,,,
93.64,-0.00244,134.59,,,,,,,
93.67,-0.00239,140.03,,,,,,,
93.71,-0.00234,145.34,,,,,,,
93.75,-0.00229,150.3,,,,,,,
93.8,-0.00224,154.83,,,,,,,
93.8,-0.00223,155.51,,,,,,,
93.84,-0.00219,158.81,,,,,,,
93.89,-0.00214,162.52,,,,,,,
93.93,-0.00209,165.97,,,,,,,
93.99,-0.00204,169.4,,,,,,,
94.04,-0.00199,172.68,,,,,,,
94.09,-0.00194,175.65,,,,,,,
94.13,-0.00189,178.09,,,,,,,
94.17,-0.00184,180.22,,,,,,,
94.21,-0.00179,181.6,,,,,,,
94.25,-0.00174,182.47,,,,,,,
94.31,-0.00169,183.24,,,,,,,
94.38,-0.00164,184.51,,,,,,,
94.44,-0.00158,186.99,,,,,,,
94.49,-0.00153,189.78,,,,,,,
94.54,-0.00148,190.4,,,,,,,
94.54,-0.00143,190.27,,,,,,,
94.55,-0.00137,190.46,,,,,,,
94.55,-0.00132,190.72,,,,,,,
94.79,-0.00127,183.91,,,,,,,
94.8,-0.00125,185.15,,,,,,,
94.84,-0.00122,188.18,,,,,,,
94.88,-0.00117,192.74,,,,,,,
94.93,-0.00112,197.38,,,,,,,
94.99,-0.00106,198.73,,,,,,,
95.02,-0.00101,199.88,,,,,,,
95.02,-0.00096,200.29,,,,,,,
95.04,-0.00091,201.36,,,,,,,
95.06,-0.00086,201.96,,,,,,,
95.22,-0.00081,197.25,,,,,,,
95.31,-0.00076,201.34,,,,,,,
95.36,-0.00071,206.23,,,,,,,
95.38,-0.00066,203.11,,,,,,,
95.39,-0.0006,203.45,,,,,,,
95.39,-0.00055,203.79,,,,,,,
95.42,-0.0005,206.06,,,,,,,
95.6,-0.00045,201.72,,,,,,,
95.67,-0.0004,206.25,,,,,,,
95.72,-0.00035,211.29,,,,,,,
95.75,-0.00029,207.4,,,,,,,
95.75,-0.00024,207.76,,,,,,,
95.75,-0.00018,208.23,,,,,,,
95.79,-0.00013,210.8,,,,,,,
95.8,-0.00012,210.83,,,,,,,
176.03,-5e-05,213.79,,,,,,,
176.09,0.0,217.15,,,,,,,
176.14,5e-05,221.4,,,,,,,
176.19,0.0001,225.21,,,,,,,
176.22,0.00015,223.48,,,,,,,
176.23,0.00021,224.26,,,,,,,
176.25,0.00026,225.72,,,,,,,
176.34,0.00031,225.48,,,,,,,
176.44,0.00036,226.9,,,,,,,
176.5,0.00041,229.98,,,,,,,
176.55,0.00046,233.67,,,,,,,
176.56,0.00053,222.14,,,,,,,
176.56,0.00063,222.61,,,,,,,
176.56,0.0007,222.67,,,,,,,
176.56,0.00077,222.68,,,,,,,
176.56,0.00086,222.8,,,,,,,
176.56,0.00094,222.76,,,,,,,
176.56,0.00102,222.82,,,,,,,
176.57,0.0011,222.95,,,,,,,
176.57,0.00117,223.04,,,,,,,
176.57,0.00122,223.22,,,,,,,
176.57,0.00129,223.24,,,,,,,
176.58,0.00123,223.53,,,,,,,
176.62,0.00118,209.8,,,,,,,
176.63,0.00113,202.29,,,,,,,
176.64,0.00108,193.5,,,,,,,
176.65,0.00103,185.75,,,,,,,
176.66,0.00097,178.17,,,,,,,
176.67,0.00092,170.2,,,,,,,
176.68,0.00087,163.35,,,,,,,
176.7,0.00082,156.27,,,,,,,
176.71,0.00077,149.45,,,,,,,
176.73,0.00072,143.17,,,,,,,
176.75,0.00067,137.22,,,,,,,
176.8,0.00063,134.33,,,,,,,
176.87,0.00072,148.06,,,,,,,
176.9,0.00077,155.33,,,,,,,
176.93,0.00082,162.2,,,,,,,
176.96,0.00087,168.79,,,,,,,
176.99,0.00092,174.88,,,,,,,
177.03,0.00097,180.75,,,,,,,
177.08,0.00102,186.25,,,,,,,
177.13,0.00107,191.02,,,,,,,
177.2,0.00112,196.52,,,,,,,
177.26,0.00117,201.98,,,,,,,
177.31,0.00122,207.06,,,,,,,
177.36,0.00127,212.07,,,,,,,
177.41,0.00132,216.8,,,,,,,
177.45,0.00137,221.29,,,,,,,
177.5,0.00142,225.42,,,,,,,
177.55,0.00147,229.33,,,,,,,
177.6,0.00152,233.31,,,,,,,
177.66,0.00157,237.25,,,,,,,
177.71,0.00163,241.49,,,,,,,
177.75,0.00168,231.09,,,,,,,
177.75,0.00175,231.54,,,,,,,
177.75,0.00182,231.57,,,,,,,
177.76,0.00191,231.61,,,,,,,
177.76,0.00199,231.81,,,,,,,
177.76,0.00205,232.2,,,,,,,
177.77,0.00199,232.6,,,,,,,
177.77,0.00194,232.79,,,,,,,
177.8,0.00198,230.63,,,,,,,
177.91,0.00189,211.87,,,,,,,
178.06,0.00194,214.34,,,,,,,
178.09,0.00199,219.35,,,,,,,
178.13,0.00204,224.51,,,,,,,
178.17,0.00209,229.32,,,,,,,
178.22,0.00214,234.26,,,,,,,
178.27,0.00219,233.87,,,,,,,
178.27,0.00225,234.53,,,,,,,
178.27,0.0023,234.65,,,,,,,
178.28,0.00237,234.73,,,,,,,
178.28,0.00242,234.96,,,,,,,
178.28,0.00249,235.2,,,,,,,
178.4,0.00244,219.94,,,,,,,
178.59,0.00249,219.93,,,,,,,
178.64,0.00254,225.29,,,,,,,
178.67,0.00259,229.86,,,,,,,
178.71,0.00264,234.32,,,,,,,
178.75,0.00269,238.11,,,,,,,
178.8,0.00274,241.35,,,,,,,
178.8,0.00274,241.56,,,,,,,
178.85,0.00279,244.33,,,,,,,
178.89,0.00284,236.82,,,,,,,
178.9,0.0029,237.17,,,,,,,
178.9,0.00296,237.15,,,,,,,
178.9,0.00301,237.47,,,,,,,
179.15,0.00306,230.74,,,,,,,
179.2,0.00311,234.43,,,,,,,
179.25,0.00316,238.62,,,,,,,
179.29,0.00321,242.5,,,,,,,
179.33,0.00326,246.18,,,,,,,
179.38,0.00331,249.3,,,,,,,
179.44,0.00336,250.29,,,,,,,
179.49,0.00342,240.71,,,,,,,
179.49,0.00348,240.59,,,,,,,
179.49,0.00357,240.84,,,,,,,
179.49,0.00363,240.87,,,,,,,
179.49,0.00369,241.01,,,,,,,
179.49,0.00376,240.96,,,,,,,
179.5,0.00382,241.0,,,,,,,
179.5,0.00388,241.12,,,,,,,
179.5,0.00394,241.22,,,,,,,
179.5,0.00401,241.47,,,,,,,
179.51,0.00396,241.85,,,,,,,
179.51,0.00391,241.84,,,,,,,
179.57,0.00386,222.48,,,,,,,
179.59,0.00381,214.41,,,,,,,
179.61,0.00375,206.32,,,,,,,
179.63,0.0037,198.58,,,,,,,
179.65,0.00365,191.28,,,,,,,
179.7,0.0036,184.49,,,,,,,
179.79,0.00365,191.32,,,,,,,
179.8,0.00367,193.96,,,,,,,
179.82,0.0037,197.16,,,,,,,
179.85,0.00375,203.09,,,,,,,
179.88,0.0038,208.8,,,,,,,
179.92,0.00386,214.32,,,,,,,
179.96,0.00391,219.25,,,,,,,
180.0,0.00396,223.42,,,,,,,
180.05,0.00401,227.04,,,,,,,
180.11,0.00406,230.46,,,,,,,
180.16,0.00411,233.87,,,,,,,
180.22,0.00416,237.2,,,,,,,
180.27,0.00421,240.47,,,,,,,
180.32,0.00426,243.72,,,,,,,
180.37,0.00431,246.78,,,,,,,
180.42,0.00436,249.73,,,,,,,
180.47,0.00441,252.59,,,,,,,
180.5,0.00446,246.23,,,,,,,
180.51,0.00455,246.42,,,,,,,
180.51,0.00465,246.46,,,,,,,
180.51,0.00471,246.55,,,,,,,
180.51,0.00477,246.51,,,,,,,
180.51,0.00483,246.51,,,,,,,
180.51,0.00489,246.6,,,,,,,
180.51,0.00495,246.66,,,,,,,
180.52,0.00503,246.8,,,,,,,
180.52,0.00508,246.96,,,,,,,
180.53,0.00503,246.97,,,,,,,
180.57,0.00498,232.9,,,,,,,
180.59,0.00492,223.6,,,,,,,
180.6,0.00487,215.6,,,,,,,
180.62,0.00482,207.32,,,,,,,
180.63,0.00477,200.36,,,,,,,
180.65,0.00472,192.95,,,,,,,
180.67,0.00467,186.15,,,,,,,
180.71,0.00462,179.68,,,,,,,
180.8,0.00466,186.49,,,,,,,
180.81,0.00467,187.97,,,,,,,
180.84,0.00472,194.58,,,,,,,
180.87,0.00477,200.69,,,,,,,
180.9,0.00482,206.79,,,,,,,
180.93,0.00487,212.51,,,,,,,
180.97,0.00492,217.62,,,,,,,
181.16,0.00487,201.17,,,,,,,
181.2,0.00482,193.04,,,,,,,
181.24,0.00477,185.25,,,,,,,
181.28,0.00472,177.93,,,,,,,
181.32,0.00467,170.58,,,,,,,
181.37,0.00462,163.32,,,,,,,
181.43,0.00457,155.79,,,,,,,
181.49,0.00452,148.14,,,,,,,
181.55,0.00447,140.56,,,,,,,
181.61,0.00442,132.41,,,,,,,
181.66,0.00437,124.52,,,,,,,
181.71,0.00432,116.79,,,,,,,
181.77,0.00427,108.71,,,,,,,
181.8,0.00424,103.92,,,,,,,
181.82,0.00422,100.91,,,,,,,
181.88,0.00417,93.09,,,,,,,
181.93,0.00412,85.58,,,,,,,
181.98,0.00407,78.24,,,,,,,
182.04,0.00402,70.76,,,,,,,
182.09,0.00396,63.48,,,,,,,
182.14,0.00391,56.63,,,,,,,
182.19,0.00386,49.61,,,,,,,
182.25,0.00381,42.94,,,,,,,
182.3,0.00376,36.15,,,,,,,
182.35,0.00371,29.55,,,,,,,
182.41,0.00366,22.9,,,,,,,
182.46,0.00361,16.25,,,,,,,
182.51,0.00356,10.11,,,,,,,
182.56,0.00351,3.92,,,,,,,
182.62,0.00346,-2.1,,,,,,,
182.67,0.00341,-8.2,,,,,,,
182.73,0.00336,-14.36,,,,,,,
182.78,0.00331,-20.02,,,,,,,
182.8,0.0033,-21.5,,,,,,,
182.94,0.00326,-23.4,,,,,,,
183.02,0.00321,-29.61,,,,,,,
183.08,0.00316,-35.37,,,,,,,
183.14,0.00311,-40.86,,,,,,,
183.2,0.00306,-47.06,,,,,,,
183.23,0.00301,-54.37,,,,,,,
183.26,0.00296,-61.13,,,,,,,
183.28,0.0029,-67.73,,,,,,,
183.3,0.00285,-74.24,,,,,,,
183.33,0.0028,-80.35,,,,,,,
183.36,0.00275,-86.27,,,,,,,
183.39,0.0027,-91.92,,,,,,,
183.42,0.00265,-97.32,,,,,,,
183.46,0.0026,-102.4,,,,,,,
183.5,0.00255,-107.4,,,,,,,
183.55,0.0025,-112.1,,,,,,,
183.61,0.00245,-116.9,,,,,,,
183.66,0.0024,-121.6,,,,,,,
183.71,0.00235,-126.2,,,,,,,
183.76,0.0023,-130.7,,,,,,,
183.8,0.00226,-134.3,,,,,,,
183.81,0.00225,-135.3,,,,,,,
183.86,0.00219,-139.8,,,,,,,
183.92,0.00214,-144.2,,,,,,,
183.97,0.00209,-148.4,,,,,,,
184.02,0.00204,-152.6,,,,,,,
184.07,0.00199,-156.9,,,,,,,
184.12,0.00194,-161.2,,,,,,,
184.18,0.00189,-165.4,,,,,,,
184.23,0.00184,-169.4,,,,,,,
184.28,0.00179,-173.6,,,,,,,
184.33,0.00174,-177.5,,,,,,,
184.38,0.00169,-181.3,,,,,,,
184.43,0.00164,-185.2,,,,,,,
184.48,0.00159,-188.9,,,,,,,
184.53,0.00154,-192.5,,,,,,,
184.57,0.00149,-195.5,,,,,,,
184.62,0.00144,-197.9,,,,,,,
184.65,0.00139,-197.7,,,,,,,
184.65,0.00133,-197.9,,,,,,,
184.66,0.00128,-198.0,,,,,,,
184.66,0.00123,-198.4,,,,,,,
184.8,0.00122,-188.0,,,,,,,
184.93,0.00118,-189.6,,,,,,,
184.98,0.00113,-194.3,,,,,,,
185.03,0.00107,-199.1,,,,,,,
185.07,0.00102,-203.6,,,,,,,
185.11,0.00097,-207.7,,,,,,,
185.13,0.00092,-206.8,,,,,,,
185.16,0.00087,-208.9,,,,,,,
185.22,0.00082,-210.7,,,,,,,
185.3,0.00077,-212.8,,,,,,,
185.37,0.00072,-214.8,,,,,,,
185.38,0.00066,-214.6,,,,,,,
185.39,0.00061,-214.8,,,,,,,
185.4,0.00056,-215.6,,,,,,,
185.5,0.00051,-213.2,,,,,,,
185.62,0.00046,-211.6,,,,,,,
185.69,0.0004,-214.8,,,,,,,
185.73,0.00035,-218.3,,,,,,,
185.78,0.0003,-216.4,,,,,,,
185.78,0.00024,-216.9,,,,,,,
185.79,0.00018,-217.1,,,,,,,
185.79,0.00012,-217.4,,,,,,,
185.8,0.0001,-218.2,,,,,,,
186.01,7e-05,-206.7,,,,,,,
186.08,2e-05,-209.9,,,,,,,
186.13,-3e-05,-214.2,,,,,,,
186.17,-8e-05,-218.5,,,,,,,
186.22,-0.00013,-222.8,,,,,,,
186.27,-0.00018,-226.9,,,,,,,
186.31,-0.00023,-229.2,,,,,,,
186.33,-0.00029,-222.1,,,,,,,
186.33,-0.00034,-222.3,,,,,,,
186.33,-0.0004,-222.3,,,,,,,
186.33,-0.00045,-222.5,,,,,,,
186.34,-0.0005,-222.9,,,,,,,
186.65,-0.00055,-213.9,,,,,,,
186.7,-0.0006,-218.7,,,,,,,
186.74,-0.00065,-222.9,,,,,,,
186.78,-0.0007,-227.2,,,,,,,
186.8,-0.00073,-229.1,,,,,,,
186.83,-0.00075,-231.3,,,,,,,
186.86,-0.00081,-230.1,,,,,,,
186.86,-0.00088,-230.3,,,,,,,
186.86,-0.00093,-230.4,,,,,,,
186.86,-0.00099,-230.6,,,,,,,
186.87,-0.00105,-230.8,,,,,,,
187.02,-0.001,-212.6,,,,,,,
187.17,-0.00105,-214.6,,,,,,,
187.21,-0.0011,-220.0,,,,,,,
187.25,-0.00115,-225.1,,,,,,,
187.29,-0.0012,-230.1,,,,,,,
187.34,-0.00125,-234.6,,,,,,,
187.38,-0.0013,-238.6,,,,,,,
187.43,-0.00135,-232.1,,,,,,,
187.43,-0.00141,-232.7,,,,,,,
187.49,-0.00146,-236.1,,,,,,,
187.56,-0.00151,-237.8,,,,,,,
187.63,-0.00156,-240.3,,,,,,,
187.68,-0.00161,-243.2,,,,,,,
187.7,-0.00167,-239.6,,,,,,,
187.71,-0.00172,-239.9,,,,,,,
187.75,-0.00177,-241.1,,,,,,,
187.8,-0.00179,-240.0,,,,,,,
187.87,-0.00182,-238.7,,,,,,,
187.96,-0.00187,-240.7,,,,,,,
188.01,-0.00192,-244.0,,,,,,,
188.06,-0.00197,-247.6,,,,,,,
188.08,-0.00204,-236.4,,,,,,,
188.08,-0.00209,-236.8,,,,,,,
188.09,-0.00216,-236.8,,,,,,,
188.09,-0.00225,-236.8,,,,,,,
188.09,-0.00234,-237.0,,,,,,,
188.09,-0.0024,-237.3,,,,,,,
188.1,-0.00245,-237.7,,,,,,,
188.1,-0.0024,-237.9,,,,,,,
188.18,-0.00235,-220.8,,,,,,,
188.21,-0.0023,-212.7,,,,,,,
188.24,-0.00225,-204.2,,,,,,,
188.42,-0.0023,-207.6,,,,,,,
188.46,-0.00235,-213.3,,,,,,,
188.5,-0.0024,-218.7,,,,,,,
188.53,-0.00245,-223.7,,,,,,,
188.58,-0.0025,-228.6,,,,,,,
188.63,-0.00255,-232.8,,,,,,,
188.67,-0.0026,-236.8,,,,,,,
188.72,-0.00265,-240.4,,,,,,,
188.78,-0.0027,-243.9,,,,,,,
188.8,-0.00273,-245.6,,,,,,,
188.83,-0.00275,-247.3,,,,,,,
188.88,-0.0028,-250.1,,,,,,,
188.93,-0.00286,-253.4,,,,,,,
188.97,-0.00291,-245.8,,,,,,,
188.98,-0.00298,-245.9,,,,,,,
188.98,-0.00304,-246.0,,,,,,,
188.98,-0.00309,-246.2,,,,,,,
188.98,-0.00314,-246.5,,,,,,,
189.3,-0.00319,-235.0,,,,,,,
189.34,-0.00324,-239.8,,,,,,,
189.38,-0.0033,-244.3,,,,,,,
189.43,-0.00335,-248.6,,,,,,,
189.47,-0.0034,-252.3,,,,,,,
189.52,-0.00345,-255.7,,,,,,,
189.53,-0.0035,-248.3,,,,,,,
189.53,-0.00356,-248.5,,,,,,,
189.53,-0.00362,-248.6,,,,,,,
189.53,-0.00369,-248.6,,,,,,,
189.53,-0.00374,-248.8,,,,,,,
189.54,-0.00379,-249.0,,,,,,,
189.63,-0.00374,-236.9,,,,,,,
189.67,-0.00369,-227.1,,,,,,,
189.8,-0.00369,-222.9,,,,,,,
189.85,-0.00374,-227.5,,,,,,,
189.89,-0.00379,-232.7,,,,,,,
189.93,-0.00384,-237.5,,,,,,,
189.97,-0.00389,-242.4,,,,,,,
190.01,-0.00394,-246.2,,,,,,,
190.05,-0.00399,-249.6,,,,,,,
190.1,-0.00404,-253.0,,,,,,,
190.16,-0.00409,-256.0,,,,,,,
190.21,-0.00415,-258.7,,,,,,,
190.24,-0.00421,-251.7,,,,,,,
190.24,-0.00427,-252.0,,,,,,,
190.24,-0.00437,-252.1,,,,,,,
190.25,-0.00443,-252.2,,,,,,,
190.25,-0.0045,-252.2,,,,,,,
190.25,-0.00456,-252.1,,,,,,,
190.25,-0.00462,-252.2,,,,,,,
190.25,-0.00468,-252.2,,,,,,,
190.25,-0.00476,-252.5,,,,,,,
190.25,-0.00482,-252.5,,,,,,,
190.26,-0.00476,-252.6,,,,,,,
190.31,-0.00471,-236.4,,,,,,,
190.33,-0.00466,-227.2,,,,,,,
190.34,-0.00461,-218.4,,,,,,,
190.36,-0.00455,-210.4,,,,,,,
190.37,-0.0045,-202.5,,,,,,,
190.39,-0.00445,-195.4,,,,,,,
190.41,-0.0044,-188.5,,,,,,,
190.44,-0.00435,-181.9,,,,,,,
190.55,-0.0044,-190.1,,,,,,,
190.58,-0.00445,-196.6,,,,,,,
190.61,-0.0045,-203.2,,,,,,,
190.64,-0.00455,-209.5,,,,,,,
190.68,-0.0046,-215.3,,,,,,,
190.71,-0.00465,-220.7,,,,,,,
190.76,-0.00471,-225.8,,,,,,,
190.8,-0.00475,-229.8,,,,,,,
190.81,-0.00476,-230.7,,,,,,,
190.86,-0.00481,-234.7,,,,,,,
190.92,-0.00486,-238.9,,,,,,,
190.97,-0.00491,-242.7,,,,,,,
191.18,-0.00486,-219.2,,,,,,,
191.22,-0.00481,-210.7,,,,,,,
191.26,-0.00476,-202.4,,,,,,,
191.29,-0.00471,-194.6,,,,,,,
191.34,-0.00466,-186.9,,,,,,,
191.39,-0.00461,-179.0,,,,,,,
191.45,-0.00456,-171.2,,,,,,,
191.5,-0.0045,-163.6,,,,,,,
191.56,-0.00445,-156.3,,,,,,,
191.61,-0.0044,-148.8,,,,,,,
191.66,-0.00435,-141.6,,,,,,,
191.72,-0.0043,-134.6,,,,,,,
191.77,-0.00425,-127.5,,,,,,,
191.8,-0.00422,-122.9,,,,,,,
191.82,-0.0042,-120.4,,,,,,,
191.88,-0.00415,-113.6,,,,,,,
191.93,-0.0041,-106.8,,,,,,,
191.98,-0.00405,-99.63,,,,,,,
192.04,-0.004,-92.05,,,,,,,
192.09,-0.00395,-85.61,,,,,,,
192.14,-0.0039,-78.61,,,,,,,
192.2,-0.00385,-72.06,,,,,,,
192.24,-0.0038,-65.99,,,,,,,
192.3,-0.00375,-59.26,,,,,,,
192.35,-0.0037,-52.79,,,,,,,
192.41,-0.00365,-46.22,,,,,,,
192.46,-0.0036,-39.84,,,,,,,
192.51,-0.00355,-33.44,,,,,,,
192.56,-0.0035,-27.46,,,,,,,
192.62,-0.00345,-21.31,,,,,,,
192.67,-0.0034,-15.08,,,,,,,
192.72,-0.00335,-8.98,,,,,,,
192.78,-0.00329,-2.69,,,,,,,
192.8,-0.00327,0.27,,,,,,,
192.83,-0.00324,3.55,,,,,,,
192.88,-0.00319,9.78,,,,,,,
192.94,-0.00314,15.72,,,,,,,
192.99,-0.00309,21.63,,,,,,,
193.05,-0.00304,26.87,,,,,,,
193.14,-0.00299,31.85,,,,,,,
193.2,-0.00294,38.08,,,,,,,
193.25,-0.00289,44.55,,,,,,,
193.28,-0.00284,50.21,,,,,,,
193.33,-0.00279,55.27,,,,,,,
193.37,-0.00274,59.21,,,,,,,
193.44,-0.00269,63.87,,,,,,,
193.52,-0.00264,68.97,,,,,,,
193.58,-0.00259,74.3,,,,,,,
193.65,-0.00254,80.71,,,,,,,
193.7,-0.00249,85.99,,,,,,,
193.75,-0.00244,91.2,,,,,,,
193.8,-0.00239,96.1,,,,,,,
193.8,-0.00238,96.74,,,,,,,
193.84,-0.00234,101.12,,,,,,,
193.87,-0.00229,106.3,,,,,,,
193.91,-0.00224,112.11,,,,,,,
193.95,-0.00219,117.93,,,,,,,
193.98,-0.00214,123.44,,,,,,,
194.02,-0.00209,128.9,,,,,,,
194.07,-0.00204,134.89,,,,,,,
194.12,-0.00198,140.57,,,,,,,
194.16,-0.00193,145.9,,,,,,,
194.21,-0.00188,150.41,,,,,,,
194.25,-0.00183,154.93,,,,,,,
194.3,-0.00178,158.96,,,,,,,
194.35,-0.00173,162.94,,,,,,,
194.39,-0.00168,166.54,,,,,,,
194.45,-0.00163,170.11,,,,,,,
194.51,-0.00158,174.37,,,,,,,
194.56,-0.00153,178.57,,,,,,,
194.61,-0.00148,182.63,,,,,,,
194.66,-0.00143,186.77,,,,,,,
194.71,-0.00138,190.3,,,,,,,
194.76,-0.00133,193.75,,,,,,,
194.78,-0.00127,194.23,,,,,,,
194.79,-0.00122,194.87,,,,,,,
194.8,-0.0012,195.51,,,,,,,
194.82,-0.00117,195.69,,,,,,,
194.86,-0.00112,194.87,,,,,,,
195.02,-0.00107,191.54,,,,,,,
195.08,-0.00102,194.9,,,,,,,
195.12,-0.00097,198.53,,,,,,,
195.17,-0.00092,201.97,,,,,,,
195.21,-0.00087,204.24,,,,,,,
195.28,-0.00082,208.07,,,,,,,
195.3,-0.00077,206.36,,,,,,,
195.3,-0.00071,206.9,,,,,,,
195.33,-0.00066,208.4,,,,,,,
195.41,-0.00061,207.61,,,,,,,
195.52,-0.00056,206.83,,,,,,,
195.58,-0.00051,209.66,,,,,,,
195.63,-0.00046,213.18,,,,,,,
195.68,-0.00041,216.59,,,,,,,
195.7,-0.00036,215.49,,,,,,,
195.74,-0.00031,212.82,,,,,,,
195.74,-0.00024,213.37,,,,,,,
195.74,-0.00017,213.43,,,,,,,
195.75,-9e-05,213.5,,,,,,,
195.75,-2e-05,213.57,,,,,,,
195.75,4e-05,213.71,,,,,,,
195.8,4e-05,206.63,,,,,,,
195.83,-1e-05,197.3,,,,,,,
195.86,-6e-05,189.06,,,,,,,
195.89,-0.00011,180.64,,,,,,,
376.03,-0.00015,206.14,,,,,,,
376.07,-0.0001,211.24,,,,,,,
376.12,-5e-05,215.85,,,,,,,
376.17,-0.0,220.21,,,,,,,
376.22,5e-05,224.11,,,,,,,
376.27,0.0001,227.78,,,,,,,
376.29,0.00015,223.12,,,,,,,
376.3,0.00021,223.46,,,,,,,
376.33,0.00026,224.88,,,,,,,
376.47,0.00031,222.37,,,,,,,
376.55,0.00036,225.43,,,,,,,
376.59,0.00041,228.9,,,,,,,
376.64,0.00046,232.72,,,,,,,
376.68,0.00051,236.16,,,,,,,
376.72,0.00057,225.2,,,,,,,
376.72,0.00065,225.39,,,,,,,
376.72,0.0007,225.69,,,,,,,
376.72,0.00077,225.81,,,,,,,
376.72,0.00084,225.81,,,,,,,
376.72,0.00093,225.88,,,,,,,
376.73,0.00103,225.88,,,,,,,
376.73,0.00112,225.89,,,,,,,
376.73,0.00121,226.0,,,,,,,
376.73,0.00129,226.1,,,,,,,
376.73,0.00136,226.23,,,,,,,
376.73,0.00142,226.33,,,,,,,
376.73,0.00148,226.32,,,,,,,
376.74,0.00142,226.47,,,,,,,
376.74,0.00136,226.28,,,,,,,
376.78,0.00131,207.1,,,,,,,
376.79,0.00126,197.35,,,,,,,
376.8,0.00121,191.26,,,,,,,
376.8,0.0012,189.62,,,,,,,
376.82,0.00115,180.92,,,,,,,
376.83,0.00109,173.07,,,,,,,
376.83,0.00104,166.22,,,,,,,
376.84,0.00099,158.39,,,,,,,
376.86,0.00094,151.23,,,,,,,
376.87,0.00088,144.27,,,,,,,
376.88,0.00083,137.22,,,,,,,
376.9,0.00078,130.9,,,,,,,
376.92,0.00073,124.75,,,,,,,
377.03,0.00078,134.41,,,,,,,
377.06,0.00083,141.38,,,,,,,
377.08,0.00088,148.06,,,,,,,
377.11,0.00093,154.58,,,,,,,
377.14,0.00098,160.31,,,,,,,
377.17,0.00103,165.75,,,,,,,
377.22,0.00108,171.36,,,,,,,
377.29,0.00113,177.55,,,,,,,
377.36,0.00118,183.66,,,,,,,
377.41,0.00123,189.2,,,,,,,
377.46,0.00128,194.94,,,,,,,
377.51,0.00134,200.87,,,,,,,
377.56,0.00139,206.06,,,,,,,
377.61,0.00144,211.01,,,,,,,
377.65,0.00149,215.47,,,,,,,
377.71,0.00154,220.25,,,,,,,
377.76,0.00159,224.52,,,,,,,
377.8,0.00163,228.43,,,,,,,
377.81,0.00164,228.79,,,,,,,
377.86,0.00169,233.21,,,,,,,
377.91,0.00174,237.34,,,,,,,
377.96,0.00179,241.24,,,,,,,
378.0,0.00174,238.01,,,,,,,
378.04,0.00179,243.04,,,,,,,
378.06,0.00184,243.54,,,,,,,
378.06,0.0019,244.49,,,,,,,
378.08,0.00195,243.25,,,,,,,
378.08,0.00201,243.69,,,,,,,
378.09,0.00208,244.11,,,,,,,
378.09,0.00213,244.27,,,,,,,
378.09,0.00219,244.73,,,,,,,
378.27,0.00214,220.33,,,,,,,
378.39,0.00219,223.78,,,,,,,
378.43,0.00224,228.84,,,,,,,
378.47,0.00229,233.63,,,,,,,
378.51,0.00234,238.23,,,,,,,
378.55,0.00239,242.34,,,,,,,
378.6,0.00244,246.2,,,,,,,
378.65,0.00249,249.53,,,,,,,
378.67,0.00254,243.59,,,,,,,
378.68,0.0026,243.72,,,,,,,
378.68,0.00267,243.87,,,,,,,
378.68,0.00273,244.09,,,,,,,
378.8,0.00273,232.91,,,,,,,
378.97,0.00278,233.19,,,,,,,
379.01,0.00283,237.56,,,,,,,
379.05,0.00288,241.7,,,,,,,
379.09,0.00293,245.8,,,,,,,
379.14,0.00298,249.57,,,,,,,
379.18,0.00303,252.57,,,,,,,
379.23,0.00308,255.43,,,,,,,
379.28,0.00313,257.69,,,,,,,
379.3,0.0032,248.6,,,,,,,
379.3,0.00329,248.93,,,,,,,
379.3,0.00335,248.99,,,,,,,
379.3,0.00341,248.96,,,,,,,
379.3,0.00349,249.01,,,,,,,
379.3,0.00356,248.97,,,,,,,
379.31,0.00364,249.0,,,,,,,
379.31,0.00371,249.11,,,,,,,
379.31,0.00377,249.15,,,,,,,
379.31,0.00383,249.23,,,,,,,
379.31,0.00389,249.21,,,,,,,
379.32,0.00384,249.23,,,,,,,
379.36,0.00379,233.55,,,,,,,
379.38,0.00374,223.54,,,,,,,
379.39,0.00369,215.53,,,,,,,
379.4,0.00363,206.8,,,,,,,
379.41,0.00358,199.14,,,,,,,
379.42,0.00352,191.28,,,,,,,
379.44,0.00347,184.21,,,,,,,
379.45,0.00342,177.24,,,,,,,
379.47,0.00337,170.5,,,,,,,
379.49,0.00332,164.35,,,,,,,
379.61,0.00337,174.01,,,,,,,
379.64,0.00342,180.56,,,,,,,
379.66,0.00347,186.62,,,,,,,
379.69,0.00352,192.5,,,,,,,
379.72,0.00357,198.16,,,,,,,
379.76,0.00362,203.4,,,,,,,
379.8,0.00367,207.98,,,,,,,
379.8,0.00368,208.09,,,,,,,
379.86,0.00373,212.48,,,,,,,
379.92,0.00378,216.52,,,,,,,
379.98,0.00383,220.53,,,,,,,
380.03,0.00388,224.64,,,,,,,
380.08,0.00393,228.69,,,,,,,
380.13,0.00398,232.8,,,,,,,
380.18,0.00403,236.79,,,,,,,
380.23,0.00408,240.3,,,,,,,
380.28,0.00413,243.77,,,,,,,
380.32,0.00418,246.87,,,,,,,
380.38,0.00423,249.93,,,,,,,
380.42,0.00428,252.66,,,,,,,
380.48,0.00433,255.34,,,,,,,
380.52,0.00438,257.69,,,,,,,
380.57,0.00443,260.02,,,,,,,
380.62,0.00448,262.07,,,,,,,
380.65,0.00454,254.09,,,,,,,
380.66,0.0046,254.04,,,,,,,
380.66,0.00465,254.35,,,,,,,
380.8,0.0047,248.0,,,,,,,
380.8,0.0047,247.89,,,,,,,
380.91,0.00475,246.97,,,,,,,
380.96,0.0048,249.91,,,,,,,
381.01,0.00485,253.26,,,,,,,
381.05,0.0049,256.29,,,,,,,
381.1,0.00495,257.35,,,,,,,
381.23,0.0049,236.18,,,,,,,
381.27,0.00485,226.63,,,,,,,
381.31,0.0048,217.79,,,,,,,
381.34,0.00475,209.38,,,,,,,
381.38,0.0047,201.43,,,,,,,
381.43,0.00465,193.2,,,,,,,
381.48,0.0046,184.81,,,,,,,
381.53,0.00455,177.23,,,,,,,
381.59,0.0045,169.55,,,,,,,
381.65,0.00445,160.91,,,,,,,
381.7,0.0044,153.42,,,,,,,
381.75,0.00435,146.18,,,,,,,
381.8,0.0043,139.45,,,,,,,
381.81,0.0043,138.92,,,,,,,
381.86,0.00425,131.63,,,,,,,
381.91,0.0042,124.45,,,,,,,
381.96,0.00414,117.51,,,,,,,
382.02,0.00409,110.61,,,,,,,
382.07,0.00404,104.0,,,,,,,
382.12,0.00399,96.99,,,,,,,
382.18,0.00394,90.2,,,,,,,
382.23,0.00389,83.51,,,,,,,
382.28,0.00384,77.06,,,,,,,
382.33,0.00379,70.57,,,,,,,
382.39,0.00374,64.23,,,,,,,
382.44,0.00369,57.48,,,,,,,
382.5,0.00364,51.28,,,,,,,
382.55,0.00359,45.29,,,,,,,
382.6,0.00354,39.08,,,,,,,
382.65,0.00349,32.9,,,,,,,
382.71,0.00344,26.48,,,,,,,
382.76,0.00339,20.3,,,,,,,
382.8,0.00335,15.76,,,,,,,
382.82,0.00334,14.33,,,,,,,
382.87,0.00329,8.71,,,,,,,
382.92,0.00324,2.72,,,,,,,
382.97,0.00319,-3.02,,,,,,,
383.03,0.00313,-9.15,,,,,,,
383.09,0.00308,-15.16,,,,,,,
383.16,0.00303,-21.2,,,,,,,
383.32,0.00298,-25.84,,,,,,,
383.38,0.00293,-31.19,,,,,,,
383.45,0.00288,-37.4,,,,,,,
383.5,0.00283,-42.41,,,,,,,
383.56,0.00278,-48.9,,,,,,,
383.59,0.00273,-56.35,,,,,,,
383.61,0.00268,-62.82,,,,,,,
383.64,0.00263,-68.98,,,,,,,
383.66,0.00258,-74.85,,,,,,,
383.68,0.00253,-80.59,,,,,,,
383.71,0.00248,-86.3,,,,,,,
383.74,0.00243,-91.57,,,,,,,
383.77,0.00237,-96.4,,,,,,,
383.8,0.00233,-99.78,,,,,,,
383.81,0.00232,-100.6,,,,,,,
383.86,0.00227,-104.8,,,,,,,
383.91,0.00222,-109.0,,,,,,,
383.96,0.00217,-112.7,,,,,,,
384.01,0.00212,-116.4,,,,,,,
384.07,0.00207,-120.6,,,,,,,
384.12,0.00202,-124.3,,,,,,,
384.17,0.00197,-128.3,,,,,,,
384.22,0.00192,-132.0,,,,,,,
384.27,0.00187,-136.2,,,,,,,
384.32,0.00182,-140.2,,,,,,,
384.37,0.00177,-143.7,,,,,,,
384.42,0.00172,-147.4,,,,,,,
384.47,0.00167,-151.0,,,,,,,
384.52,0.00162,-154.6,,,,,,,
384.58,0.00157,-158.1,,,,,,,
384.63,0.00152,-161.8,,,,,,,
384.68,0.00147,-165.3,,,,,,,
384.73,0.00142,-168.9,,,,,,,
384.79,0.00137,-172.9,,,,,,,
384.8,0.00135,-174.1,,,,,,,
384.84,0.00132,-176.6,,,,,,,
384.89,0.00127,-180.4,,,,,,,
384.94,0.00122,-184.0,,,,,,,
384.99,0.00117,-187.3,,,,,,,
385.04,0.00112,-190.6,,,,,,,
385.09,0.00107,-193.8,,,,,,,
385.14,0.00101,-197.0,,,,,,,
385.19,0.00096,-200.4,,,,,,,
385.24,0.00091,-203.9,,,,,,,
385.3,0.00086,-207.2,,,,,,,
385.33,0.00081,-205.5,,,,,,,
385.33,0.00075,-205.6,,,,,,,
385.33,0.0007,-205.7,,,,,,,
385.34,0.00065,-205.9,,,,,,,
385.34,0.00058,-206.2,,,,,,,
385.67,0.00053,-192.8,,,,,,,
385.71,0.00048,-198.0,,,,,,,
385.75,0.00043,-203.0,,,,,,,
385.79,0.00038,-207.5,,,,,,,
385.8,0.00037,-208.3,,,,,,,
385.84,0.00033,-211.5,,,,,,,
385.89,0.00028,-215.2,,,,,,,
385.94,0.00023,-218.7,,,,,,,
385.99,0.00018,-218.7,,,,,,,
386.01,0.00013,-219.8,,,,,,,
386.04,8e-05,-221.6,,,,,,,
386.12,3e-05,-223.3,,,,,,,
386.17,-3e-05,-221.6,,,,,,,
386.23,-8e-05,-223.5,,,,,,,
386.29,-0.00013,-225.9,,,,,,,
386.35,-0.00018,-229.0,,,,,,,
386.4,-0.00023,-232.1,,,,,,,
386.45,-0.00028,-234.9,,,,,,,
386.5,-0.00033,-237.4,,,,,,,
386.51,-0.00039,-225.4,,,,,,,
386.51,-0.00046,-225.5,,,,,,,
386.51,-0.00054,-225.4,,,,,,,
386.51,-0.00062,-225.6,,,,,,,
386.51,-0.00069,-225.8,,,,,,,
386.52,-0.00075,-226.0,,,,,,,
386.59,-0.0007,-213.2,,,,,,,
386.62,-0.00065,-204.5,,,,,,,
386.64,-0.0006,-196.6,,,,,,,
386.68,-0.00055,-188.9,,,,,,,
386.8,-0.00057,-190.6,,,,,,,
386.83,-0.0006,-194.3,,,,,,,
386.87,-0.00065,-200.5,,,,,,,
386.9,-0.0007,-206.3,,,,,,,
386.94,-0.00075,-211.7,,,,,,,
386.98,-0.0008,-216.7,,,,,,,
387.03,-0.00085,-221.6,,,,,,,
387.08,-0.0009,-225.9,,,,,,,
387.13,-0.00095,-230.1,,,,,,,
387.18,-0.001,-234.0,,,,,,,
387.23,-0.00105,-237.5,,,,,,,
387.28,-0.0011,-241.3,,,,,,,
387.33,-0.00116,-244.7,,,,,,,
387.38,-0.00121,-247.8,,,,,,,
387.41,-0.00126,-236.3,,,,,,,
387.42,-0.00132,-236.6,,,,,,,
387.42,-0.00137,-236.8,,,,,,,
387.42,-0.00142,-236.7,,,,,,,
387.42,-0.00149,-237.1,,,,,,,
387.74,-0.00154,-225.5,,,,,,,
387.79,-0.00159,-230.5,,,,,,,
387.8,-0.00161,-232.5,,,,,,,
387.83,-0.00164,-235.1,,,,,,,
387.87,-0.00169,-239.4,,,,,,,
387.91,-0.00174,-243.5,,,,,,,
387.96,-0.00179,-247.2,,,,,,,
388.01,-0.00184,-250.5,,,,,,,
388.05,-0.00189,-244.4,,,,,,,
388.06,-0.00196,-244.8,,,,,,,
388.06,-0.00202,-244.9,,,,,,,
388.06,-0.00209,-245.0,,,,,,,
388.06,-0.00215,-245.2,,,,,,,
388.07,-0.00221,-245.2,,,,,,,
388.18,-0.00216,-225.3,,,,,,,
388.23,-0.00211,-216.4,,,,,,,
388.37,-0.00216,-219.9,,,,,,,
388.41,-0.00221,-225.3,,,,,,,
388.45,-0.00226,-230.7,,,,,,,
388.49,-0.00231,-235.5,,,,,,,
388.53,-0.00236,-240.1,,,,,,,
388.58,-0.00241,-244.3,,,,,,,
388.62,-0.00246,-247.9,,,,,,,
388.67,-0.00251,-251.3,,,,,,,
388.72,-0.00256,-254.1,,,,,,,
388.77,-0.00261,-256.8,,,,,,,
388.8,-0.00264,-258.3,,,,,,,
388.82,-0.00267,-246.7,,,,,,,
388.82,-0.00272,-246.3,,,,,,,
388.82,-0.00282,-246.7,,,,,,,
388.82,-0.00289,-246.7,,,,,,,
388.82,-0.00297,-246.7,,,,,,,
388.82,-0.00305,-246.7,,,,,,,
388.83,-0.00314,-246.7,,,,,,,
388.83,-0.00323,-246.7,,,,,,,
388.83,-0.0033,-246.8,,,,,,,
388.83,-0.00337,-246.9,,,,,,,
388.83,-0.00343,-247.0,,,,,,,
388.83,-0.0035,-246.9,,,,,,,
388.84,-0.00344,-247.1,,,,,,,
388.84,-0.00339,-246.5,,,,,,,
388.89,-0.00334,-223.3,,,,,,,
388.9,-0.00329,-215.0,,,,,,,
388.91,-0.00323,-206.5,,,,,,,
388.92,-0.00318,-198.0,,,,,,,
388.93,-0.00312,-190.6,,,,,,,
388.94,-0.00307,-183.0,,,,,,,
388.95,-0.00302,-175.8,,,,,,,
388.96,-0.00297,-168.9,,,,,,,
388.98,-0.00292,-162.0,,,,,,,
389.0,-0.00287,-155.5,,,,,,,
389.02,-0.00282,-149.8,,,,,,,
389.13,-0.00287,-160.3,,,,,,,
389.15,-0.00292,-167.5,,,,,,,
389.18,-0.00297,-174.0,,,,,,,
389.21,-0.00302,-180.2,,,,,,,
389.24,-0.00307,-186.5,,,,,,,
389.27,-0.00312,-192.4,,,,,,,
389.31,-0.00317,-198.2,,,,,,,
389.37,-0.00322,-203.7,,,,,,,
389.43,-0.00327,-208.8,,,,,,,
389.49,-0.00332,-213.8,,,,,,,
389.54,-0.00337,-219.1,,,,,,,
389.59,-0.00343,-224.0,,,,,,,
389.64,-0.00348,-228.9,,,,,,,
389.69,-0.00353,-233.3,,,,,,,
389.74,-0.00358,-237.4,,,,,,,
389.78,-0.00363,-241.4,,,,,,,
389.8,-0.00365,-242.9,,,,,,,
389.83,-0.00368,-245.1,,,,,,,
389.88,-0.00373,-248.5,,,,,,,
389.93,-0.00378,-251.7,,,,,,,
389.98,-0.00383,-254.8,,,,,,,
390.03,-0.00388,-257.6,,,,,,,
390.07,-0.00393,-259.4,,,,,,,
390.1,-0.00398,-260.8,,,,,,,
390.16,-0.00403,-262.3,,,,,,,
390.22,-0.00408,-263.5,,,,,,,
390.28,-0.00413,-265.0,,,,,,,
390.33,-0.00418,-266.8,,,,,,,
390.38,-0.00423,-268.7,,,,,,,
390.42,-0.00429,-257.7,,,,,,,
390.42,-0.00436,-257.9,,,,,,,
390.43,-0.00444,-257.9,,,,,,,
390.43,-0.00449,-258.0,,,,,,,
390.43,-0.00455,-257.9,,,,,,,
390.43,-0.0046,-257.8,,,,,,,
390.43,-0.00465,-257.9,,,,,,,
390.43,-0.00473,-258.1,,,,,,,
390.43,-0.00479,-258.1,,,,,,,
390.44,-0.00473,-258.3,,,,,,,
390.51,-0.00468,-239.0,,,,,,,
390.53,-0.00463,-230.5,,,,,,,
390.55,-0.00458,-222.3,,,,,,,
390.57,-0.00453,-214.8,,,,,,,
390.6,-0.00448,-207.7,,,,,,,
390.75,-0.00453,-212.8,,,,,,,
390.78,-0.00458,-218.8,,,,,,,
390.8,-0.00461,-222.6,,,,,,,
390.81,-0.00463,-224.5,,,,,,,
390.85,-0.00468,-229.7,,,,,,,
390.89,-0.00473,-234.7,,,,,,,
390.93,-0.00478,-239.3,,,,,,,
390.98,-0.00483,-243.4,,,,,,,
391.03,-0.00488,-246.9,,,,,,,
391.09,-0.00494,-249.5,,,,,,,
391.25,-0.00488,-229.1,,,,,,,
391.29,-0.00483,-219.8,,,,,,,
391.32,-0.00478,-211.4,,,,,,,
391.36,-0.00473,-203.2,,,,,,,
391.4,-0.00468,-195.4,,,,,,,
391.45,-0.00463,-187.7,,,,,,,
391.5,-0.00458,-179.7,,,,,,,
391.55,-0.00453,-172.3,,,,,,,
391.61,-0.00448,-164.3,,,,,,,
391.67,-0.00443,-156.3,,,,,,,
391.73,-0.00438,-148.2,,,,,,,
391.78,-0.00433,-140.4,,,,,,,
391.8,-0.00431,-137.2,,,,,,,
391.83,-0.00428,-133.1,,,,,,,
391.88,-0.00423,-125.9,,,,,,,
391.93,-0.00418,-118.9,,,,,,,
391.98,-0.00413,-112.2,,,,,,,
392.03,-0.00408,-105.7,,,,,,,
392.09,-0.00403,-98.87,,,,,,,
392.15,-0.00398,-91.52,,,,,,,
392.2,-0.00393,-84.2,,,,,,,
392.26,-0.00388,-76.91,,,,,,,
392.32,-0.00383,-68.84,,,,,,,
392.37,-0.00377,-61.85,,,,,,,
392.42,-0.00372,-55.03,,,,,,,
392.47,-0.00367,-48.2,,,,,,,
392.52,-0.00362,-41.85,,,,,,,
392.56,-0.00357,-36.05,,,,,,,
392.62,-0.00352,-29.43,,,,,,,
392.68,-0.00347,-22.77,,,,,,,
392.74,-0.00342,-15.4,,,,,,,
392.79,-0.00337,-8.42,,,,,,,
392.8,-0.00336,-7.4,,,,,,,
392.84,-0.00332,-1.91,,,,,,,
392.89,-0.00327,4.42,,,,,,,
392.95,-0.00322,10.69,,,,,,,
393.0,-0.00317,17.25,,,,,,,
393.05,-0.00312,23.22,,,,,,,
393.12,-0.00307,28.52,,,,,,,
393.21,-0.00302,34.15,,,,,,,
393.26,-0.00297,40.5,,,,,,,
393.31,-0.00292,46.88,,,,,,,
393.35,-0.00287,52.96,,,,,,,
393.4,-0.00282,58.66,,,,,,,
393.46,-0.00277,64.08,,,,,,,
393.53,-0.00272,69.31,,,,,,,
393.59,-0.00267,74.66,,,,,,,
393.65,-0.00262,80.16,,,,,,,
393.71,-0.00257,85.54,,,,,,,
393.76,-0.00252,90.38,,,,,,,
393.8,-0.00247,94.56,,,,,,,
393.81,-0.00246,95.23,,,,,,,
393.86,-0.00241,100.26,,,,,,,
393.9,-0.00236,106.06,,,,,,,
393.93,-0.00231,111.93,,,,,,,
393.97,-0.00226,117.72,,,,,,,
394.0,-0.00221,123.38,,,,,,,
394.04,-0.00216,128.48,,,,,,,
394.08,-0.00211,133.63,,,,,,,
394.12,-0.00206,138.43,,,,,,,
394.16,-0.00201,142.8,,,,,,,
394.21,-0.00196,147.24,,,,,,,
394.26,-0.00191,151.29,,,,,,,
394.31,-0.00186,155.29,,,,,,,
394.36,-0.00181,159.02,,,,,,,
394.41,-0.00176,162.78,,,,,,,
394.46,-0.00171,166.57,,,,,,,
394.51,-0.00166,170.3,,,,,,,
394.56,-0.00161,173.89,,,,,,,
394.61,-0.00156,177.67,,,,,,,
394.66,-0.00151,181.06,,,,,,,
394.71,-0.00146,184.49,,,,,,,
394.76,-0.0014,187.92,,,,,,,
394.8,-0.00136,190.55,,,,,,,
394.81,-0.00135,191.14,,,,,,,
394.86,-0.0013,194.26,,,,,,,
394.91,-0.00125,197.34,,,,,,,
394.96,-0.0012,200.32,,,,,,,
395.0,-0.00115,202.69,,,,,,,
395.05,-0.0011,203.26,,,,,,,
395.06,-0.00104,203.57,,,,,,,
395.06,-0.00099,203.76,,,,,,,
395.09,-0.00094,204.05,,,,,,,
395.29,-0.00089,197.31,,,,,,,
395.35,-0.00084,201.31,,,,,,,
395.4,-0.00079,205.5,,,,,,,
395.44,-0.00074,209.29,,,,,,,
395.49,-0.00069,211.2,,,,,,,
395.5,-0.00064,211.94,,,,,,,
395.54,-0.00059,214.8,,,,,,,
395.61,-0.00054,216.5,,,,,,,
395.68,-0.00049,218.44,,,,,,,
395.74,-0.00044,221.24,,,,,,,
395.76,-0.00037,218.06,,,,,,,
395.76,-0.00031,218.21,,,,,,,
395.76,-0.00026,218.3,,,,,,,
395.77,-0.0002,218.49,,,,,,,
395.8,-0.00017,218.07,,,,,,,
976.34,-9e-05,209.74,,,,,,,
976.39,-4e-05,213.97,,,,,,,
976.44,1e-05,217.85,,,,,,,
976.49,6e-05,221.7,,,,,,,
976.54,0.00011,225.18,,,,,,,
976.59,0.00016,228.5,,,,,,,
976.63,0.00021,231.47,,,,,,,
976.68,0.00026,234.3,,,,,,,
976.73,0.00031,236.79,,,,,,,
976.78,0.00036,239.15,,,,,,,
976.8,0.00038,240.16,,,,,,,
976.82,0.00041,231.34,,,,,,,
976.82,0.00048,231.41,,,,,,,
976.83,0.00053,231.81,,,,,,,
976.99,0.00058,228.12,,,,,,,
977.07,0.00063,230.13,,,,,,,
977.12,0.00068,233.84,,,,,,,
977.17,0.00073,237.46,,,,,,,
977.21,0.00078,240.99,,,,,,,
977.25,0.00083,244.11,,,,,,,
977.3,0.00088,246.96,,,,,,,
977.35,0.00093,249.4,,,,,,,
977.4,0.00098,251.67,,,,,,,
977.45,0.00103,231.57,,,,,,,
977.45,0.00109,232.6,,,,,,,
977.45,0.0012,232.46,,,,,,,
977.45,0.00129,232.82,,,,,,,
977.45,0.0014,232.9,,,,,,,
977.46,0.00152,232.81,,,,,,,
977.46,0.00164,232.88,,,,,,,
977.46,0.00177,232.74,,,,,,,
977.46,0.00189,232.68,,,,,,,
977.46,0.00199,232.83,,,,,,,
977.46,0.00208,232.94,,,,,,,
977.46,0.00216,233.09,,,,,,,
977.46,0.00221,233.18,,,,,,,
977.47,0.00214,233.0,,,,,,,
977.5,0.00209,216.9,,,,,,,
977.51,0.00204,205.92,,,,,,,
977.52,0.00198,197.66,,,,,,,
977.53,0.00193,189.23,,,,,,,
977.54,0.00188,180.58,,,,,,,
977.54,0.00182,172.76,,,,,,,
977.55,0.00177,165.09,,,,,,,
977.56,0.00171,157.6,,,,,,,
977.56,0.00166,150.38,,,,,,,
977.57,0.00161,143.33,,,,,,,
977.58,0.00156,136.47,,,,,,,
977.58,0.00151,129.14,,,,,,,
977.59,0.00146,122.48,,,,,,,
977.6,0.0014,115.3,,,,,,,
977.61,0.00135,108.44,,,,,,,
977.62,0.00129,101.91,,,,,,,
977.63,0.00124,95.57,,,,,,,
977.65,0.00119,90.06,,,,,,,
977.77,0.00124,104.09,,,,,,,
977.79,0.00129,111.08,,,,,,,
977.8,0.00133,115.99,,,,,,,
977.81,0.00134,118.03,,,,,,,
977.83,0.0014,124.84,,,,,,,
977.86,0.00145,131.47,,,,,,,
977.89,0.0015,137.67,,,,,,,
977.94,0.00155,143.77,,,,,,,
978.0,0.0016,149.95,,,,,,,
978.07,0.00165,156.51,,,,,,,
978.13,0.0017,162.89,,,,,,,
978.18,0.00175,169.13,,,,,,,
978.24,0.0018,175.72,,,,,,,
978.29,0.00185,181.7,,,,,,,
978.33,0.0019,187.12,,,,,,,
978.38,0.00195,192.8,,,,,,,
978.43,0.002,198.13,,,,,,,
978.48,0.00205,203.59,,,,,,,
978.54,0.0021,208.74,,,,,,,
978.59,0.00215,213.68,,,,,,,
978.63,0.0022,218.36,,,,,,,
978.68,0.00225,222.59,,,,,,,
978.73,0.00231,226.77,,,,,,,
978.78,0.00236,231.06,,,,,,,
978.8,0.00238,232.69,,,,,,,
978.83,0.00241,234.77,,,,,,,
978.88,0.00246,238.37,,,,,,,
978.92,0.00251,241.71,,,,,,,
978.97,0.00256,244.8,,,,,,,
979.02,0.00261,247.74,,,,,,,
979.07,0.00266,250.52,,,,,,,
979.12,0.00271,253.21,,,,,,,
979.17,0.00276,255.79,,,,,,,
979.22,0.00281,257.97,,,,,,,
979.26,0.00286,259.81,,,,,,,
979.31,0.00291,261.54,,,,,,,
979.36,0.00296,248.11,,,,,,,
979.37,0.00302,247.42,,,,,,,
979.37,0.00309,247.77,,,,,,,
979.37,0.00318,247.71,,,,,,,
979.37,0.00324,247.68,,,,,,,
979.37,0.00329,247.54,,,,,,,
979.37,0.00334,247.61,,,,,,,
979.38,0.00343,247.78,,,,,,,
979.38,0.00349,247.83,,,,,,,
979.43,0.00344,236.03,,,,,,,
979.45,0.00339,226.55,,,,,,,
979.47,0.00334,218.01,,,,,,,
979.49,0.00328,209.93,,,,,,,
979.5,0.00323,202.11,,,,,,,
979.53,0.00318,194.87,,,,,,,
979.56,0.00313,188.48,,,,,,,
979.67,0.00318,195.74,,,,,,,
979.7,0.00323,202.09,,,,,,,
979.73,0.00328,208.01,,,,,,,
979.77,0.00334,213.73,,,,,,,
979.8,0.00339,218.76,,,,,,,
979.8,0.00339,219.04,,,,,,,
979.84,0.00344,223.17,,,,,,,
979.88,0.00349,226.9,,,,,,,
979.93,0.00354,230.01,,,,,,,
980.0,0.00359,233.38,,,,,,,
980.06,0.00364,236.87,,,,,,,
980.11,0.00369,240.24,,,,,,,
980.16,0.00374,243.81,,,,,,,
980.21,0.00379,247.17,,,,,,,
980.26,0.00384,250.66,,,,,,,
980.31,0.00389,253.7,,,,,,,
980.35,0.00394,256.51,,,,,,,
980.4,0.00399,258.85,,,,,,,
980.45,0.00404,261.01,,,,,,,
980.5,0.00409,262.93,,,,,,,
980.55,0.00414,264.66,,,,,,,
980.6,0.00419,266.59,,,,,,,
980.64,0.00425,255.36,,,,,,,
980.64,0.00434,255.25,,,,,,,
980.65,0.00439,255.46,,,,,,,
980.65,0.00447,255.56,,,,,,,
980.65,0.00456,255.49,,,,,,,
980.65,0.00465,255.55,,,,,,,
980.65,0.00475,255.5,,,,,,,
980.65,0.00486,255.44,,,,,,,
980.65,0.00495,255.53,,,,,,,
980.65,0.00504,255.62,,,,,,,
980.65,0.00511,255.72,,,,,,,
980.65,0.00517,255.78,,,,,,,
980.66,0.00524,255.66,,,,,,,
980.66,0.00517,255.63,,,,,,,
980.67,0.00512,255.34,,,,,,,
980.71,0.00507,233.39,,,,,,,
980.72,0.00501,224.14,,,,,,,
980.73,0.00496,215.18,,,,,,,
980.73,0.0049,206.94,,,,,,,
980.74,0.00485,198.89,,,,,,,
980.75,0.0048,190.84,,,,,,,
980.76,0.00474,183.31,,,,,,,
980.77,0.00469,176.01,,,,,,,
980.78,0.00464,168.61,,,,,,,
980.79,0.00459,161.83,,,,,,,
980.8,0.00453,155.18,,,,,,,
980.8,0.00452,153.51,,,,,,,
980.81,0.00448,148.53,,,,,,,
980.83,0.00443,142.52,,,,,,,
980.85,0.00438,137.03,,,,,,,
980.95,0.00443,148.31,,,,,,,
980.97,0.00448,155.47,,,,,,,
981.0,0.00453,162.18,,,,,,,
981.02,0.00458,168.5,,,,,,,
981.05,0.00463,174.61,,,,,,,
981.08,0.00469,180.37,,,,,,,
981.12,0.00474,185.98,,,,,,,
981.17,0.00479,191.43,,,,,,,
981.24,0.00484,196.63,,,,,,,
981.3,0.00489,201.58,,,,,,,
981.36,0.00494,205.56,,,,,,,
981.49,0.00489,193.14,,,,,,,
981.54,0.00484,185.0,,,,,,,
981.58,0.00479,176.89,,,,,,,
981.62,0.00473,168.89,,,,,,,
981.67,0.00468,161.14,,,,,,,
981.72,0.00463,154.14,,,,,,,
981.77,0.00458,146.78,,,,,,,
981.8,0.00456,142.7,,,,,,,
981.83,0.00453,139.33,,,,,,,
981.89,0.00448,131.87,,,,,,,
981.95,0.00443,123.81,,,,,,,
982.0,0.00438,116.14,,,,,,,
982.05,0.00433,108.64,,,,,,,
982.1,0.00428,101.75,,,,,,,
982.15,0.00423,95.15,,,,,,,
982.21,0.00418,88.09,,,,,,,
982.26,0.00413,80.87,,,,,,,
982.32,0.00408,73.67,,,,,,,
982.37,0.00403,67.63,,,,,,,
982.42,0.00398,61.24,,,,,,,
982.47,0.00393,54.71,,,,,,,
982.52,0.00388,48.5,,,,,,,
982.57,0.00383,42.62,,,,,,,
982.64,0.00378,35.01,,,,,,,
982.69,0.00372,28.29,,,,,,,
982.75,0.00367,21.74,,,,,,,
982.8,0.00362,15.56,,,,,,,
982.8,0.00362,14.86,,,,,,,
982.85,0.00357,9.82,,,,,,,
982.89,0.00352,4.46,,,,,,,
982.95,0.00347,-0.86,,,,,,,
983.0,0.00342,-6.6,,,,,,,
983.06,0.00337,-12.61,,,,,,,
983.12,0.00332,-18.41,,,,,,,
983.26,0.00327,-22.71,,,,,,,
983.35,0.00322,-27.88,,,,,,,
983.41,0.00317,-33.46,,,,,,,
983.47,0.00312,-38.84,,,,,,,
983.53,0.00307,-44.15,,,,,,,
983.57,0.00302,-51.17,,,,,,,
983.6,0.00297,-58.27,,,,,,,
983.63,0.00292,-65.0,,,,,,,
983.65,0.00286,-71.23,,,,,,,
983.67,0.00281,-77.22,,,,,,,
983.7,0.00276,-82.9,,,,,,,
983.73,0.00271,-88.67,,,,,,,
983.77,0.00266,-94.23,,,,,,,
983.8,0.00262,-98.89,,,,,,,
983.81,0.00261,-99.62,,,,,,,
983.85,0.00256,-104.1,,,,,,,
983.89,0.00251,-108.4,,,,,,,
983.94,0.00246,-112.8,,,,,,,
983.99,0.00241,-117.0,,,,,,,
984.05,0.00236,-121.5,,,,,,,
984.1,0.00231,-125.6,,,,,,,
984.15,0.00226,-129.8,,,,,,,
984.2,0.00221,-133.9,,,,,,,
984.25,0.00216,-137.9,,,,,,,
984.3,0.00211,-141.7,,,,,,,
984.35,0.00205,-145.5,,,,,,,
984.4,0.002,-148.9,,,,,,,
984.45,0.00195,-152.6,,,,,,,
984.51,0.0019,-156.8,,,,,,,
984.56,0.00185,-160.6,,,,,,,
984.61,0.0018,-164.8,,,,,,,
984.66,0.00175,-168.5,,,,,,,
984.71,0.0017,-172.3,,,,,,,
984.76,0.00165,-176.0,,,,,,,
984.8,0.00161,-178.7,,,,,,,
984.81,0.0016,-179.3,,,,,,,
984.87,0.00155,-183.0,,,,,,,
984.92,0.0015,-186.1,,,,,,,
984.96,0.00145,-189.1,,,,,,,
985.01,0.0014,-192.2,,,,,,,
985.07,0.00135,-195.5,,,,,,,
985.12,0.0013,-198.7,,,,,,,
985.17,0.00125,-201.7,,,,,,,
985.21,0.0012,-204.6,,,,,,,
985.26,0.00115,-207.5,,,,,,,
985.32,0.0011,-210.2,,,,,,,
985.37,0.00105,-209.3,,,,,,,
985.37,0.00099,-209.7,,,,,,,
985.38,0.00092,-209.8,,,,,,,
985.38,0.00086,-209.9,,,,,,,
985.38,0.0008,-210.1,,,,,,,
985.55,0.00085,-188.1,,,,,,,
985.67,0.0008,-190.5,,,,,,,
985.72,0.00074,-195.6,,,,,,,
985.76,0.00069,-200.4,,,,,,,
985.8,0.00064,-205.0,,,,,,,
985.8,0.00064,-205.4,,,,,,,
985.84,0.00059,-209.4,,,,,,,
985.89,0.00054,-213.5,,,,,,,
985.94,0.00049,-217.1,,,,,,,
985.99,0.00044,-220.6,,,,,,,
986.04,0.00039,-223.9,,,,,,,
986.09,0.00034,-222.0,,,,,,,
986.09,0.00028,-222.4,,,,,,,
986.13,0.00023,-224.2,,,,,,,
986.22,0.00018,-224.2,,,,,,,
986.3,0.00013,-225.8,,,,,,,
986.36,8e-05,-228.8,,,,,,,
986.41,3e-05,-231.9,,,,,,,
986.46,-2e-05,-234.9,,,,,,,
986.51,-7e-05,-238.0,,,,,,,
986.55,-0.00012,-240.8,,,,,,,
986.6,-0.00017,-243.4,,,,,,,
986.61,-0.00024,-228.9,,,,,,,
986.61,-0.00033,-229.4,,,,,,,
986.61,-0.00038,-229.4,,,,,,,
986.61,-0.00045,-229.3,,,,,,,
986.62,-0.00052,-229.5,,,,,,,
986.62,-0.00059,-229.4,,,,,,,
986.62,-0.00066,-229.3,,,,,,,
986.62,-0.00072,-229.5,,,,,,,
986.62,-0.00077,-229.5,,,,,,,
986.62,-0.00084,-229.7,,,,,,,
986.63,-0.00079,-229.9,,,,,,,
986.68,-0.00074,-213.1,,,,,,,
986.69,-0.00068,-204.0,,,,,,,
986.71,-0.00063,-195.8,,,,,,,
986.72,-0.00058,-188.0,,,,,,,
986.74,-0.00053,-180.0,,,,,,,
986.75,-0.00047,-172.7,,,,,,,
986.77,-0.00042,-165.5,,,,,,,
986.79,-0.00037,-159.2,,,,,,,
986.8,-0.00036,-157.7,,,,,,,
986.94,-0.00042,-170.4,,,,,,,
986.97,-0.00047,-177.1,,,,,,,
987.0,-0.00052,-184.0,,,,,,,
987.03,-0.00057,-190.7,,,,,,,
987.07,-0.00063,-197.1,,,,,,,
987.11,-0.00068,-202.9,,,,,,,
987.15,-0.00073,-207.6,,,,,,,
987.2,-0.00078,-211.9,,,,,,,
987.25,-0.00083,-215.7,,,,,,,
987.3,-0.00088,-219.1,,,,,,,
987.35,-0.00093,-222.7,,,,,,,
987.41,-0.00098,-226.0,,,,,,,
987.46,-0.00103,-229.7,,,,,,,
987.51,-0.00108,-233.4,,,,,,,
987.56,-0.00113,-236.6,,,,,,,
987.61,-0.00118,-239.9,,,,,,,
987.66,-0.00123,-242.9,,,,,,,
987.71,-0.00128,-245.9,,,,,,,
987.76,-0.00133,-248.8,,,,,,,
987.8,-0.00138,-251.1,,,,,,,
987.8,-0.00138,-251.2,,,,,,,
987.85,-0.00143,-253.6,,,,,,,
987.9,-0.00148,-255.6,,,,,,,
987.96,-0.00153,-257.7,,,,,,,
987.99,-0.0016,-240.3,,,,,,,
987.99,-0.0017,-239.8,,,,,,,
987.99,-0.00178,-240.1,,,,,,,
987.99,-0.00189,-240.3,,,,,,,
987.99,-0.00201,-240.2,,,,,,,
987.99,-0.00215,-240.2,,,,,,,
987.99,-0.00229,-240.2,,,,,,,
987.99,-0.00243,-240.1,,,,,,,
987.99,-0.00257,-240.2,,,,,,,
988.0,-0.00269,-240.2,,,,,,,
988.0,-0.00279,-240.3,,,,,,,
988.0,-0.00287,-240.5,,,,,,,
988.0,-0.00293,-240.4,,,,,,,
988.0,-0.00299,-240.5,,,,,,,
988.0,-0.00292,-240.2,,,,,,,
988.01,-0.00286,-240.1,,,,,,,
988.01,-0.0028,-239.4,,,,,,,
988.02,-0.00285,-235.2,,,,,,,
988.03,-0.0028,-225.8,,,,,,,
988.04,-0.00275,-213.0,,,,,,,
988.05,-0.00269,-204.3,,,,,,,
988.06,-0.00264,-195.1,,,,,,,
988.06,-0.00258,-185.5,,,,,,,
988.07,-0.00252,-177.1,,,,,,,
988.07,-0.00246,-168.6,,,,,,,
988.08,-0.00241,-160.1,,,,,,,
988.09,-0.00235,-151.8,,,,,,,
988.09,-0.00229,-143.6,,,,,,,
988.1,-0.00223,-135.6,,,,,,,
988.1,-0.00218,-128.0,,,,,,,
988.11,-0.00212,-120.6,,,,,,,
988.12,-0.00207,-113.7,,,,,,,
988.12,-0.00201,-106.1,,,,,,,
988.13,-0.00196,-99.04,,,,,,,
988.14,-0.00191,-92.63,,,,,,,
988.14,-0.00186,-86.47,,,,,,,
988.15,-0.00181,-80.25,,,,,,,
988.16,-0.00175,-74.44,,,,,,,
988.18,-0.0017,-68.99,,,,,,,
988.21,-0.00165,-65.54,,,,,,,
988.27,-0.0017,-76.71,,,,,,,
988.29,-0.00175,-84.77,,,,,,,
988.31,-0.0018,-92.17,,,,,,,
988.33,-0.00185,-99.26,,,,,,,
988.35,-0.0019,-106.1,,,,,,,
988.38,-0.00195,-113.0,,,,,,,
988.4,-0.00201,-119.4,,,,,,,
988.44,-0.00206,-125.5,,,,,,,
988.48,-0.00211,-131.2,,,,,,,
988.54,-0.00216,-137.6,,,,,,,
988.6,-0.00221,-142.9,,,,,,,
988.67,-0.00226,-149.3,,,,,,,
988.73,-0.00231,-155.8,,,,,,,
988.79,-0.00236,-162.6,,,,,,,
988.8,-0.00237,-164.2,,,,,,,
988.85,-0.00241,-169.4,,,,,,,
988.9,-0.00246,-176.5,,,,,,,
988.96,-0.00251,-184.1,,,,,,,
989.01,-0.00256,-191.2,,,,,,,
989.06,-0.00261,-198.3,,,,,,,
989.11,-0.00266,-205.0,,,,,,,
989.16,-0.00271,-211.2,,,,,,,
989.21,-0.00276,-217.0,,,,,,,
989.26,-0.00281,-222.8,,,,,,,
989.3,-0.00286,-228.0,,,,,,,
989.35,-0.00291,-232.9,,,,,,,
989.4,-0.00296,-237.2,,,,,,,
989.45,-0.00301,-241.4,,,,,,,
989.5,-0.00307,-245.5,,,,,,,
989.54,-0.00312,-249.0,,,,,,,
989.59,-0.00317,-252.6,,,,,,,
989.64,-0.00322,-255.8,,,,,,,
989.69,-0.00327,-258.9,,,,,,,
989.74,-0.00332,-261.7,,,,,,,
989.76,-0.00337,-247.0,,,,,,,
989.76,-0.00343,-247.3,,,,,,,
989.77,-0.00352,-247.4,,,,,,,
989.77,-0.00357,-247.5,,,,,,,
989.77,-0.00362,-247.5,,,,,,,
989.77,-0.00368,-247.4,,,,,,,
989.77,-0.00377,-247.6,,,,,,,
989.77,-0.00383,-247.8,,,,,,,
989.8,-0.00382,-245.9,,,,,,,
989.83,-0.00378,-237.0,,,,,,,
989.85,-0.00373,-227.6,,,,,,,
989.87,-0.00368,-219.3,,,,,,,
989.89,-0.00363,-211.9,,,,,,,
989.92,-0.00358,-204.7,,,,,,,
989.95,-0.00353,-197.8,,,,,,,
990.07,-0.00358,-203.8,,,,,,,
990.11,-0.00363,-209.6,,,,,,,
990.14,-0.00368,-215.2,,,,,,,
990.17,-0.00373,-220.8,,,,,,,
990.21,-0.00378,-225.7,,,,,,,
990.25,-0.00383,-230.5,,,,,,,
990.3,-0.00388,-234.5,,,,,,,
990.35,-0.00394,-238.1,,,,,,,
990.41,-0.00399,-241.7,,,,,,,
990.46,-0.00404,-245.1,,,,,,,
990.51,-0.00409,-248.6,,,,,,,
990.57,-0.00414,-252.3,,,,,,,
990.62,-0.00419,-255.6,,,,,,,
990.66,-0.00424,-258.8,,,,,,,
990.71,-0.00429,-261.5,,,,,,,
990.76,-0.00434,-264.4,,,,,,,
990.8,-0.00438,-266.4,,,,,,,
990.81,-0.00439,-267.0,,,,,,,
990.84,-0.00445,-251.9,,,,,,,
990.84,-0.00452,-252.3,,,,,,,
990.84,-0.00462,-252.4,,,,,,,
990.84,-0.00468,-252.5,,,,,,,
990.85,-0.00475,-252.4,,,,,,,
990.85,-0.00481,-252.3,,,,,,,
990.85,-0.00486,-252.4,,,,,,,
990.85,-0.00491,-252.5,,,,,,,
990.85,-0.00499,-252.8,,,,,,,
990.9,-0.00494,-241.5,,,,,,,
990.92,-0.00488,-232.2,,,,,,,
990.94,-0.00483,-224.1,,,,,,,
990.96,-0.00478,-215.8,,,,,,,
990.97,-0.00473,-208.9,,,,,,,
990.99,-0.00468,-201.7,,,,,,,
991.01,-0.00463,-195.1,,,,,,,
991.17,-0.00468,-203.8,,,,,,,
991.2,-0.00473,-210.2,,,,,,,
991.23,-0.00478,-216.1,,,,,,,
991.26,-0.00483,-221.9,,,,,,,
991.3,-0.00488,-227.4,,,,,,,
991.34,-0.00493,-231.6,,,,,,,
991.51,-0.00488,-212.9,,,,,,,
991.55,-0.00483,-204.2,,,,,,,
991.59,-0.00478,-196.3,,,,,,,
991.62,-0.00473,-188.4,,,,,,,
991.67,-0.00468,-180.6,,,,,,,
991.72,-0.00463,-172.9,,,,,,,
991.77,-0.00458,-165.1,,,,,,,
991.8,-0.00455,-161.1,,,,,,,
991.83,-0.00453,-157.4,,,,,,,
991.88,-0.00448,-149.7,,,,,,,
991.94,-0.00443,-142.3,,,,,,,
991.99,-0.00438,-134.8,,,,,,,
992.05,-0.00433,-127.0,,,,,,,
992.1,-0.00428,-119.9,,,,,,,
992.15,-0.00423,-112.5,,,,,,,
992.21,-0.00418,-105.3,,,,,,,
992.26,-0.00413,-98.09,,,,,,,
992.31,-0.00407,-90.64,,,,,,,
992.37,-0.00402,-83.51,,,,,,,
992.42,-0.00397,-76.97,,,,,,,
992.46,-0.00392,-70.58,,,,,,,
992.52,-0.00387,-64.14,,,,,,,
992.57,-0.00382,-57.32,,,,,,,
992.63,-0.00377,-50.55,,,,,,,
992.69,-0.00372,-43.57,,,,,,,
992.74,-0.00367,-36.24,,,,,,,
992.79,-0.00362,-29.75,,,,,,,
992.8,-0.00361,-28.7,,,,,,,
992.85,-0.00357,-23.14,,,,,,,
992.9,-0.00352,-16.39,,,,,,,
992.95,-0.00347,-9.76,,,,,,,
993.01,-0.00342,-2.86,,,,,,,
993.06,-0.00337,3.51,,,,,,,
993.11,-0.00332,9.63,,,,,,,
993.16,-0.00327,15.59,,,,,,,
993.22,-0.00322,21.79,,,,,,,
993.28,-0.00317,27.22,,,,,,,
993.37,-0.00312,32.66,,,,,,,
993.43,-0.00307,38.75,,,,,,,
993.48,-0.00301,45.31,,,,,,,
993.52,-0.00296,51.49,,,,,,,
993.57,-0.00291,57.13,,,,,,,
993.62,-0.00286,62.32,,,,,,,
993.68,-0.00281,67.25,,,,,,,
993.75,-0.00276,72.23,,,,,,,
993.8,-0.00272,76.84,,,,,,,
993.81,-0.00271,77.85,,,,,,,
993.88,-0.00266,83.48,,,,,,,
993.93,-0.00261,88.97,,,,,,,
993.98,-0.00256,94.3,,,,,,,
994.03,-0.00251,99.73,,,,,,,
994.07,-0.00246,105.71,,,,,,,
994.11,-0.00241,111.94,,,,,,,
994.14,-0.00236,117.77,,,,,,,
994.17,-0.00231,123.21,,,,,,,
994.21,-0.00226,128.69,,,,,,,
994.25,-0.0022,134.1,,,,,,,
994.29,-0.00215,139.2,,,,,,,
994.34,-0.0021,144.06,,,,,,,
994.39,-0.00205,148.9,,,,,,,
994.43,-0.002,153.53,,,,,,,
994.48,-0.00195,157.63,,,,,,,
994.52,-0.0019,161.27,,,,,,,
994.56,-0.00185,164.44,,,,,,,
994.61,-0.0018,167.32,,,,,,,
994.66,-0.00175,169.93,,,,,,,
994.72,-0.0017,172.69,,,,,,,
994.77,-0.00165,175.62,,,,,,,
994.8,-0.00162,177.36,,,,,,,
994.83,-0.0016,178.76,,,,,,,
994.88,-0.00155,181.91,,,,,,,
994.92,-0.0015,184.94,,,,,,,
994.97,-0.00145,188.0,,,,,,,
995.02,-0.0014,190.87,,,,,,,
995.07,-0.00135,193.64,,,,,,,
995.13,-0.0013,196.47,,,,,,,
995.18,-0.00125,199.35,,,,,,,
995.23,-0.00119,202.3,,,,,,,
995.28,-0.00114,205.25,,,,,,,
995.33,-0.00109,207.99,,,,,,,
995.38,-0.00104,210.64,,,,,,,
995.43,-0.00099,213.42,,,,,,,
995.48,-0.00094,215.85,,,,,,,
995.53,-0.00089,218.42,,,,,,,
995.55,-0.00083,210.68,,,,,,,
995.55,-0.00078,210.86,,,,,,,
995.55,-0.00071,210.94,,,,,,,
995.55,-0.00065,210.96,,,,,,,
995.56,-0.00059,211.15,,,,,,,
995.56,-0.00053,211.25,,,,,,,
995.64,-0.00058,199.03,,,,,,,
995.68,-0.00063,189.56,,,,,,,
995.74,-0.00068,180.63,,,,,,,
995.8,-0.00067,180.78,,,,,,,
995.85,-0.00063,185.2,,,,,,,
995.88,-0.00058,190.49,,,,,,,
995.92,-0.00053,195.26,,,,,,,
995.96,-0.00048,200.13,,,,,,,
996.0,-0.00043,204.35,,,,,,,
996.04,-0.00038,208.14,,,,,,,
996.1,-0.00033,211.88,,,,,,,
996.15,-0.00028,215.37,,,,,,,
996.21,-0.00023,219.0,,,,,,,
996.26,-0.00018,222.68,,,,,,,
1976.76,-9e-05,234.12,,,,,,,
1976.8,-4e-05,234.73,,,,,,,
1976.8,-3e-05,234.82,,,,,,,
1976.85,1e-05,235.59,,,,,,,
1976.91,6e-05,236.43,,,,,,,
1976.96,0.00011,237.31,,,,,,,
1977.02,0.00016,238.71,,,,,,,
1977.06,0.00021,240.12,,,,,,,
1977.11,0.00026,241.35,,,,,,,
1977.15,0.00031,230.52,,,,,,,
1977.15,0.00038,230.28,,,,,,,
1977.15,0.00046,230.43,,,,,,,
1977.16,0.00051,230.41,,,,,,,
1977.16,0.00057,230.44,,,,,,,
1977.16,0.00063,230.36,,,,,,,
1977.16,0.00069,230.39,,,,,,,
1977.16,0.00074,230.48,,,,,,,
1977.16,0.00082,230.61,,,,,,,
1977.16,0.00087,230.64,,,,,,,
1977.17,0.00081,230.67,,,,,,,
1977.22,0.00076,216.88,,,,,,,
1977.24,0.0007,206.99,,,,,,,
1977.26,0.00065,198.24,,,,,,,
1977.28,0.0006,190.21,,,,,,,
1977.3,0.00055,182.81,,,,,,,
1977.33,0.0005,175.5,,,,,,,
1977.48,0.00055,182.59,,,,,,,
1977.51,0.0006,188.55,,,,,,,
1977.54,0.00065,194.48,,,,,,,
1977.58,0.0007,199.94,,,,,,,
1977.62,0.00076,204.91,,,,,,,
1977.66,0.00081,209.42,,,,,,,
1977.72,0.00086,213.62,,,,,,,
1977.77,0.00091,217.24,,,,,,,
1977.8,0.00094,219.47,,,,,,,
1977.83,0.00096,221.04,,,,,,,
1977.88,0.00101,224.7,,,,,,,
1977.93,0.00106,228.19,,,,,,,
1977.98,0.00111,231.5,,,,,,,
1978.02,0.00116,234.81,,,,,,,
1978.07,0.00121,237.88,,,,,,,
1978.12,0.00126,240.68,,,,,,,
1978.17,0.00131,243.17,,,,,,,
1978.23,0.00136,245.97,,,,,,,
1978.28,0.00141,248.45,,,,,,,
1978.32,0.00146,250.69,,,,,,,
1978.37,0.00151,252.63,,,,,,,
1978.38,0.00158,241.87,,,,,,,
1978.38,0.00163,242.04,,,,,,,
1978.38,0.0017,242.1,,,,,,,
1978.39,0.00177,242.07,,,,,,,
1978.39,0.00182,242.23,,,,,,,
1978.5,0.00177,222.37,,,,,,,
1978.56,0.00172,212.29,,,,,,,
1978.68,0.00177,216.69,,,,,,,
1978.72,0.00182,222.0,,,,,,,
1978.76,0.00187,226.69,,,,,,,
1978.79,0.00192,231.24,,,,,,,
1978.8,0.00193,232.28,,,,,,,
1978.83,0.00197,235.42,,,,,,,
1978.88,0.00202,239.13,,,,,,,
1978.93,0.00207,242.35,,,,,,,
1978.98,0.00212,245.24,,,,,,,
1979.03,0.00217,248.01,,,,,,,
1979.08,0.00222,250.61,,,,,,,
1979.13,0.00227,252.65,,,,,,,
1979.17,0.00232,254.46,,,,,,,
1979.23,0.00237,256.23,,,,,,,
1979.28,0.00243,257.9,,,,,,,
1979.33,0.00248,259.58,,,,,,,
1979.38,0.00253,261.27,,,,,,,
1979.42,0.00258,262.7,,,,,,,
1979.47,0.00263,263.86,,,,,,,
1979.51,0.00268,264.74,,,,,,,
1979.56,0.00273,265.26,,,,,,,
1979.61,0.00278,265.43,,,,,,,
1979.67,0.00283,265.61,,,,,,,
1979.72,0.00288,265.93,,,,,,,
1979.77,0.00293,266.4,,,,,,,
1979.8,0.00297,266.73,,,,,,,
1979.82,0.00298,266.84,,,,,,,
1979.94,0.00303,262.79,,,,,,,
1979.97,0.00308,266.29,,,,,,,
1980.0,0.00313,269.2,,,,,,,
1980.03,0.00318,262.86,,,,,,,
1980.04,0.00325,263.02,,,,,,,
1980.04,0.00332,263.16,,,,,,,
1980.04,0.00338,263.39,,,,,,,
1980.05,0.00344,263.8,,,,,,,
1980.37,0.00349,243.11,,,,,,,
1980.41,0.00354,247.37,,,,,,,
1980.46,0.00359,251.29,,,,,,,
1980.5,0.00364,254.72,,,,,,,
1980.53,0.00369,257.23,,,,,,,
1980.58,0.00374,259.51,,,,,,,
1980.63,0.00379,261.2,,,,,,,
1980.67,0.00384,262.38,,,,,,,
1980.73,0.00389,263.38,,,,,,,
1980.78,0.00394,264.26,,,,,,,
1980.8,0.00396,264.78,,,,,,,
1980.83,0.00399,265.25,,,,,,,
1980.87,0.00404,266.17,,,,,,,
1980.92,0.00409,266.86,,,,,,,
1980.97,0.00414,267.46,,,,,,,
1981.02,0.00419,267.92,,,,,,,
1981.08,0.00425,268.36,,,,,,,
1981.13,0.0043,268.92,,,,,,,
1981.18,0.00435,269.47,,,,,,,
1981.23,0.0044,270.18,,,,,,,
1981.28,0.00445,270.75,,,,,,,
1981.32,0.0045,271.23,,,,,,,
1981.37,0.00455,271.54,,,,,,,
1981.42,0.0046,271.59,,,,,,,
1981.47,0.00465,271.5,,,,,,,
1981.52,0.0047,271.46,,,,,,,
1981.57,0.00475,271.52,,,,,,,
1981.63,0.0048,271.73,,,,,,,
1981.68,0.00485,272.06,,,,,,,
1981.72,0.0049,272.38,,,,,,,
1981.77,0.00495,272.16,,,,,,,
1981.8,0.00497,270.89,,,,,,,
1981.95,0.0049,241.08,,,,,,,
1981.98,0.00485,231.02,,,,,,,
1982.02,0.0048,222.05,,,,,,,
1982.05,0.00475,213.26,,,,,,,
1982.09,0.0047,205.12,,,,,,,
1982.13,0.00465,197.37,,,,,,,
1982.18,0.0046,189.43,,,,,,,
1982.24,0.00455,181.13,,,,,,,
1982.3,0.00449,173.47,,,,,,,
1982.36,0.00444,165.43,,,,,,,
1982.41,0.00439,157.77,,,,,,,
1982.47,0.00434,149.91,,,,,,,
1982.52,0.00429,142.66,,,,,,,
1982.57,0.00424,134.89,,,,,,,
1982.62,0.00419,127.58,,,,,,,
1982.68,0.00414,120.21,,,,,,,
1982.73,0.00409,113.48,,,,,,,
1982.78,0.00404,106.46,,,,,,,
1982.8,0.00402,103.45,,,,,,,
1982.83,0.00399,99.72,,,,,,,
1982.89,0.00394,92.51,,,,,,,
1982.94,0.00389,85.56,,,,,,,
1982.99,0.00384,79.28,,,,,,,
1983.04,0.00379,72.76,,,,,,,
1983.1,0.00374,65.82,,,,,,,
1983.16,0.00369,58.89,,,,,,,
1983.21,0.00364,52.21,,,,,,,
1983.26,0.00359,45.92,,,,,,,
1983.31,0.00354,39.4,,,,,,,
1983.37,0.00349,33.32,,,,,,,
1983.43,0.00343,26.13,,,,,,,
1983.48,0.00338,19.91,,,,,,,
1983.53,0.00333,13.89,,,,,,,
1983.58,0.00328,7.79,,,,,,,
1983.63,0.00323,1.74,,,,,,,
1983.69,0.00318,-4.27,,,,,,,
1983.74,0.00313,-9.95,,,,,,,
1983.79,0.00308,-15.35,,,,,,,
1983.8,0.00307,-16.39,,,,,,,
1983.85,0.00303,-20.66,,,,,,,
1984.01,0.00298,-23.13,,,,,,,
1984.09,0.00293,-28.85,,,,,,,
1984.15,0.00288,-34.31,,,,,,,
1984.21,0.00283,-39.92,,,,,,,
1984.27,0.00278,-45.73,,,,,,,
1984.31,0.00273,-52.72,,,,,,,
1984.34,0.00268,-59.9,,,,,,,
1984.36,0.00263,-66.63,,,,,,,
1984.38,0.00257,-72.71,,,,,,,
1984.4,0.00252,-78.5,,,,,,,
1984.43,0.00247,-84.31,,,,,,,
1984.46,0.00242,-89.51,,,,,,,
1984.49,0.00237,-94.49,,,,,,,
1984.53,0.00232,-99.01,,,,,,,
1984.57,0.00227,-103.1,,,,,,,
1984.62,0.00222,-107.0,,,,,,,
1984.67,0.00217,-110.5,,,,,,,
1984.72,0.00212,-114.1,,,,,,,
1984.77,0.00207,-117.9,,,,,,,
1984.8,0.00204,-119.8,,,,,,,
1984.83,0.00202,-121.6,,,,,,,
1984.88,0.00197,-125.4,,,,,,,
1984.93,0.00192,-129.2,,,,,,,
1984.98,0.00187,-132.6,,,,,,,
1985.03,0.00182,-136.2,,,,,,,
1985.08,0.00177,-139.6,,,,,,,
1985.13,0.00172,-143.0,,,,,,,
1985.18,0.00166,-146.5,,,,,,,
1985.23,0.00161,-150.0,,,,,,,
1985.29,0.00156,-153.4,,,,,,,
1985.34,0.00151,-156.8,,,,,,,
1985.38,0.00146,-160.0,,,,,,,
1985.44,0.00141,-163.2,,,,,,,
1985.49,0.00136,-166.4,,,,,,,
1985.54,0.00131,-169.7,,,,,,,
1985.59,0.00126,-173.1,,,,,,,
1985.64,0.00121,-176.3,,,,,,,
1985.7,0.00116,-179.6,,,,,,,
1985.75,0.00111,-182.7,,,,,,,
1985.8,0.00106,-186.0,,,,,,,
1985.8,0.00106,-186.2,,,,,,,
1985.85,0.00101,-189.1,,,,,,,
1985.9,0.00096,-192.1,,,,,,,
1985.95,0.00091,-195.1,,,,,,,
1986.0,0.00086,-197.8,,,,,,,
1986.05,0.00081,-200.6,,,,,,,
1986.1,0.00076,-203.2,,,,,,,
1986.15,0.00071,-205.6,,,,,,,
1986.2,0.00066,-208.0,,,,,,,
1986.25,0.0006,-210.3,,,,,,,
1986.29,0.00055,-212.5,,,,,,,
1986.35,0.0005,-214.5,,,,,,,
1986.4,0.00045,-216.8,,,,,,,
1986.45,0.0004,-219.0,,,,,,,
1986.51,0.00035,-221.4,,,,,,,
1986.56,0.0003,-223.8,,,,,,,
1986.61,0.00025,-226.0,,,,,,,
1986.66,0.0002,-228.0,,,,,,,
1986.7,0.00015,-229.9,,,,,,,
1986.75,0.0001,-231.7,,,,,,,
1986.8,5e-05,-233.2,,,,,,,
1986.8,4e-05,-233.3,,,,,,,
1986.85,-0.0,-234.4,,,,,,,
1986.87,-6e-05,-228.4,,,,,,,
1986.87,-0.00011,-228.5,,,,,,,
1986.88,-0.00016,-228.7,,,,,,,
1987.08,-0.00021,-218.5,,,,,,,
1987.15,-0.00026,-220.7,,,,,,,
1987.2,-0.00031,-224.4,,,,,,,
1987.25,-0.00036,-228.2,,,,,,,
1987.29,-0.00041,-231.9,,,,,,,
1987.33,-0.00046,-235.0,,,,,,,
1987.38,-0.00052,-237.9,,,,,,,
1987.43,-0.00057,-240.4,,,,,,,
1987.48,-0.00062,-242.7,,,,,,,
1987.53,-0.00067,-244.8,,,,,,,
1987.58,-0.00072,-246.7,,,,,,,
1987.63,-0.00077,-248.6,,,,,,,
1987.67,-0.00082,-250.2,,,,,,,
1987.72,-0.00087,-251.8,,,,,,,
1987.77,-0.00092,-240.5,,,,,,,
1987.77,-0.00097,-241.0,,,,,,,
1987.77,-0.00103,-241.2,,,,,,,
1987.78,-0.00112,-241.2,,,,,,,
1987.78,-0.00121,-241.1,,,,,,,
1987.78,-0.00129,-241.2,,,,,,,
1987.78,-0.00134,-241.3,,,,,,,
1987.8,-0.00136,-240.5,,,,,,,
1987.86,-0.00129,-221.6,,,,,,,
1987.88,-0.00124,-212.8,,,,,,,
1987.9,-0.00119,-204.5,,,,,,,
1987.93,-0.00114,-196.7,,,,,,,
1987.97,-0.00109,-189.1,,,,,,,
1988.08,-0.00114,-194.3,,,,,,,
1988.11,-0.00119,-200.1,,,,,,,
1988.15,-0.00124,-205.6,,,,,,,
1988.18,-0.00129,-210.8,,,,,,,
1988.22,-0.00134,-215.7,,,,,,,
1988.26,-0.00139,-220.3,,,,,,,
1988.31,-0.00144,-224.3,,,,,,,
1988.36,-0.00149,-227.8,,,,,,,
1988.41,-0.00154,-231.0,,,,,,,
1988.46,-0.00159,-233.9,,,,,,,
1988.52,-0.00164,-236.9,,,,,,,
1988.57,-0.00169,-240.0,,,,,,,
1988.62,-0.00174,-242.9,,,,,,,
1988.67,-0.00179,-245.7,,,,,,,
1988.71,-0.00184,-248.3,,,,,,,
1988.76,-0.00189,-250.7,,,,,,,
1988.8,-0.00194,-252.6,,,,,,,
1988.81,-0.00195,-253.0,,,,,,,
1988.86,-0.002,-254.9,,,,,,,
1988.91,-0.00205,-256.6,,,,,,,
1988.96,-0.0021,-258.3,,,,,,,
1989.01,-0.00215,-259.8,,,,,,,
1989.06,-0.0022,-261.4,,,,,,,
1989.12,-0.00225,-263.4,,,,,,,
1989.16,-0.0023,-265.0,,,,,,,
1989.21,-0.00235,-266.3,,,,,,,
1989.25,-0.0024,-267.4,,,,,,,
1989.3,-0.00245,-268.1,,,,,,,
1989.35,-0.0025,-268.5,,,,,,,
1989.4,-0.00255,-268.7,,,,,,,
1989.45,-0.0026,-268.9,,,,,,,
1989.5,-0.00265,-269.1,,,,,,,
1989.55,-0.0027,-269.4,,,,,,,
1989.6,-0.00275,-269.8,,,,,,,
1989.66,-0.0028,-270.2,,,,,,,
1989.71,-0.00286,-270.8,,,,,,,
1989.76,-0.00291,-271.3,,,,,,,
1989.77,-0.00298,-256.8,,,,,,,
1989.77,-0.00306,-257.2,,,,,,,
1989.77,-0.00312,-257.2,,,,,,,
1989.77,-0.00318,-257.2,,,,,,,
1989.77,-0.00325,-257.1,,,,,,,
1989.77,-0.00331,-257.0,,,,,,,
1989.77,-0.00337,-257.0,,,,,,,
1989.77,-0.00343,-257.1,,,,,,,
1989.78,-0.00352,-257.3,,,,,,,
1989.78,-0.00357,-257.2,,,,,,,
1989.78,-0.00351,-257.1,,,,,,,
1989.8,-0.00351,-253.9,,,,,,,
1989.83,-0.00346,-241.2,,,,,,,
1989.85,-0.00341,-231.5,,,,,,,
1989.86,-0.00336,-221.9,,,,,,,
1989.88,-0.00331,-214.5,,,,,,,
1989.89,-0.00326,-206.3,,,,,,,
1989.91,-0.0032,-199.2,,,,,,,
1989.92,-0.00315,-192.0,,,,,,,
1989.95,-0.0031,-185.0,,,,,,,
1990.09,-0.00315,-193.4,,,,,,,
1990.12,-0.0032,-199.7,,,,,,,
1990.15,-0.00325,-205.8,,,,,,,
1990.18,-0.0033,-211.3,,,,,,,
1990.22,-0.00335,-216.6,,,,,,,
1990.26,-0.00341,-221.8,,,,,,,
1990.3,-0.00346,-225.7,,,,,,,
1990.35,-0.00351,-229.3,,,,,,,
1990.42,-0.00356,-233.1,,,,,,,
1990.48,-0.00361,-237.0,,,,,,,
1990.54,-0.00366,-241.5,,,,,,,
1990.58,-0.00371,-245.1,,,,,,,
1990.63,-0.00376,-248.7,,,,,,,
1990.67,-0.00381,-252.1,,,,,,,
1990.71,-0.00386,-254.9,,,,,,,
1990.75,-0.00391,-257.1,,,,,,,
1990.8,-0.00396,-258.9,,,,,,,
1990.8,-0.00397,-259.0,,,,,,,
1990.85,-0.00401,-260.2,,,,,,,
1990.91,-0.00406,-261.8,,,,,,,
1990.97,-0.00411,-263.9,,,,,,,
1991.01,-0.00416,-265.5,,,,,,,
1991.06,-0.00421,-267.2,,,,,,,
1991.11,-0.00426,-268.8,,,,,,,
1991.16,-0.00432,-270.3,,,,,,,
1991.21,-0.00437,-271.6,,,,,,,
1991.25,-0.00442,-272.7,,,,,,,
1991.3,-0.00447,-273.7,,,,,,,
1991.35,-0.00452,-274.2,,,,,,,
1991.4,-0.00457,-274.7,,,,,,,
1991.44,-0.00462,-275.2,,,,,,,
1991.5,-0.00467,-275.2,,,,,,,
1991.55,-0.00472,-275.1,,,,,,,
1991.61,-0.00477,-275.3,,,,,,,
1991.66,-0.00482,-275.9,,,,,,,
1991.71,-0.00487,-276.6,,,,,,,
1991.76,-0.00492,-277.2,,,,,,,
1991.8,-0.00496,-276.4,,,,,,,
1991.82,-0.00497,-275.0,,,,,,,
1991.93,-0.00492,-253.7,,,,,,,
1991.97,-0.00487,-243.4,,,,,,,
1992.0,-0.00482,-233.7,,,,,,,
1992.04,-0.00477,-224.5,,,,,,,
1992.08,-0.00472,-215.5,,,,,,,
1992.12,-0.00467,-207.4,,,,,,,
1992.17,-0.00462,-198.8,,,,,,,
1992.22,-0.00457,-190.5,,,,,,,
1992.28,-0.00452,-181.8,,,,,,,
1992.34,-0.00447,-173.2,,,,,,,
1992.39,-0.00442,-164.7,,,,,,,
1992.44,-0.00437,-156.9,,,,,,,
1992.49,-0.00432,-149.5,,,,,,,
1992.54,-0.00427,-142.4,,,,,,,
1992.6,-0.00422,-134.3,,,,,,,
1992.65,-0.00417,-126.6,,,,,,,
1992.71,-0.00412,-118.7,,,,,,,
1992.76,-0.00407,-111.4,,,,,,,
1992.8,-0.00402,-105.5,,,,,,,
1992.81,-0.00401,-104.5,,,,,,,
1992.86,-0.00396,-97.11,,,,,,,
1992.92,-0.00391,-89.84,,,,,,,
1992.97,-0.00386,-82.69,,,,,,,
1993.03,-0.00381,-75.17,,,,,,,
1993.08,-0.00376,-68.29,,,,,,,
1993.13,-0.00371,-61.07,,,,,,,
1993.18,-0.00366,-54.97,,,,,,,
1993.23,-0.00361,-47.92,,,,,,,
1993.29,-0.00356,-41.44,,,,,,,
1993.34,-0.00351,-34.73,,,,,,,
1993.4,-0.00346,-28.13,,,,,,,
1993.45,-0.00341,-21.59,,,,,,,
1993.5,-0.00336,-15.13,,,,,,,
1993.55,-0.00331,-8.81,,,,,,,
1993.61,-0.00326,-2.5,,,,,,,
1993.66,-0.00321,4.0,,,,,,,
1993.71,-0.00316,9.77,,,,,,,
1993.76,-0.00311,15.74,,,,,,,
1993.8,-0.00307,19.91,,,,,,,
1993.82,-0.00306,21.72,,,,,,,
1993.88,-0.003,27.0,,,,,,,
1993.97,-0.00295,32.15,,,,,,,
1994.03,-0.0029,37.88,,,,,,,
1994.08,-0.00285,44.34,,,,,,,
1994.12,-0.0028,50.27,,,,,,,
1994.17,-0.00275,55.99,,,,,,,
1994.23,-0.0027,61.24,,,,,,,
1994.29,-0.00265,66.75,,,,,,,
1994.35,-0.0026,71.3,,,,,,,
1994.4,-0.00255,75.63,,,,,,,
1994.46,-0.0025,80.48,,,,,,,
1994.52,-0.00245,85.07,,,,,,,
1994.58,-0.0024,90.17,,,,,,,
1994.63,-0.00235,94.82,,,,,,,
1994.67,-0.0023,100.42,,,,,,,
1994.71,-0.00225,105.92,,,,,,,
1994.74,-0.0022,111.66,,,,,,,
1994.78,-0.00215,117.16,,,,,,,
1994.8,-0.00211,121.42,,,,,,,
1994.81,-0.0021,122.37,,,,,,,
1994.85,-0.00205,127.38,,,,,,,
1994.88,-0.002,132.06,,,,,,,
1994.93,-0.00194,136.17,,,,,,,
1994.97,-0.00189,139.82,,,,,,,
1995.01,-0.00184,143.19,,,,,,,
1995.06,-0.00179,146.55,,,,,,,
1995.11,-0.00174,149.3,,,,,,,
1995.16,-0.00169,152.12,,,,,,,
1995.22,-0.00164,155.47,,,,,,,
1995.27,-0.00159,158.6,,,,,,,
1995.33,-0.00154,162.42,,,,,,,
1995.38,-0.00149,166.1,,,,,,,
1995.43,-0.00144,169.49,,,,,,,
1995.48,-0.00139,173.08,,,,,,,
1995.53,-0.00134,176.49,,,,,,,
1995.57,-0.00129,179.33,,,,,,,
1995.62,-0.00124,182.18,,,,,,,
1995.67,-0.00119,184.88,,,,,,,
1995.72,-0.00114,187.45,,,,,,,
1995.77,-0.00109,189.91,,,,,,,
1995.8,-0.00105,191.42,,,,,,,
1995.82,-0.00104,192.26,,,,,,,
1995.88,-0.00099,194.79,,,,,,,
1995.93,-0.00093,197.26,,,,,,,
1995.98,-0.00088,199.64,,,,,,,
1996.03,-0.00083,202.07,,,,,,,
1996.08,-0.00078,204.4,,,,,,,
1996.13,-0.00073,206.66,,,,,,,
1996.17,-0.00068,208.79,,,,,,,
1996.23,-0.00063,211.14,,,,,,,
1996.28,-0.00058,213.29,,,,,,,
1996.33,-0.00053,215.42,,,,,,,
1996.38,-0.00048,217.39,,,,,,,
1996.42,-0.00043,218.94,,,,,,,
1996.47,-0.00038,220.37,,,,,,,
1996.53,-0.00033,221.88,,,,,,,
1996.58,-0.00028,223.38,,,,,,,
1996.64,-0.00023,225.36,,,,,,,
1996.69,-0.00018,227.39,,,,,,,
3977.64,-9e-05,228.9,,,,,,,
3977.7,-4e-05,230.71,,,,,,,
3977.75,1e-05,232.55,,,,,,,
3977.79,6e-05,234.06,,,,,,,
3977.8,8e-05,234.4,,,,,,,
3977.84,0.00011,235.41,,,,,,,
3977.89,0.00017,236.63,,,,,,,
3977.94,0.00022,237.79,,,,,,,
3977.99,0.00027,238.93,,,,,,,
3978.04,0.00032,240.1,,,,,,,
3978.09,0.00037,241.23,,,,,,,
3978.14,0.00042,242.18,,,,,,,
3978.16,0.00048,231.59,,,,,,,
3978.16,0.00053,231.67,,,,,,,
3978.24,0.00058,229.98,,,,,,,
3978.36,0.00063,226.01,,,,,,,
3978.43,0.00068,227.38,,,,,,,
3978.48,0.00073,230.31,,,,,,,
3978.52,0.00078,233.55,,,,,,,
3978.57,0.00083,236.66,,,,,,,
3978.62,0.00088,239.26,,,,,,,
3978.66,0.00093,241.49,,,,,,,
3978.71,0.00098,243.45,,,,,,,
3978.76,0.00103,245.12,,,,,,,
3978.8,0.00108,246.35,,,,,,,
3978.81,0.00109,246.5,,,,,,,
3978.86,0.00114,247.75,,,,,,,
3978.91,0.00119,248.82,,,,,,,
3978.95,0.00124,237.26,,,,,,,
3978.99,0.00129,238.29,,,,,,,
3979.05,0.00134,239.39,,,,,,,
3979.11,0.00139,240.55,,,,,,,
3979.17,0.00144,242.14,,,,,,,
3979.22,0.00149,244.34,,,,,,,
3979.27,0.00154,246.45,,,,,,,
3979.32,0.00159,248.51,,,,,,,
3979.37,0.00164,250.28,,,,,,,
3979.41,0.00169,251.85,,,,,,,
3979.46,0.00174,253.26,,,,,,,
3979.51,0.00179,254.32,,,,,,,
3979.56,0.00184,255.34,,,,,,,
3979.61,0.00189,256.08,,,,,,,
3979.66,0.00194,256.83,,,,,,,
3979.71,0.00199,257.47,,,,,,,
3979.76,0.00204,258.17,,,,,,,
3979.8,0.00209,258.66,,,,,,,
3979.81,0.00209,258.78,,,,,,,
3979.86,0.00214,259.29,,,,,,,
3979.91,0.0022,259.83,,,,,,,
3979.95,0.00225,260.16,,,,,,,
3980.0,0.0023,260.41,,,,,,,
3980.06,0.00235,260.54,,,,,,,
3980.11,0.0024,260.82,,,,,,,
3980.16,0.00245,261.21,,,,,,,
3980.21,0.0025,261.62,,,,,,,
3980.26,0.00255,261.91,,,,,,,
3980.31,0.0026,262.33,,,,,,,
3980.35,0.00265,262.59,,,,,,,
3980.4,0.0027,262.74,,,,,,,
3980.45,0.00275,262.81,,,,,,,
3980.5,0.0028,262.87,,,,,,,
3980.55,0.00285,262.64,,,,,,,
3980.61,0.0029,262.3,,,,,,,
3980.67,0.00295,262.39,,,,,,,
3980.72,0.003,262.96,,,,,,,
3980.76,0.00305,263.62,,,,,,,
3980.8,0.0031,264.08,,,,,,,
3980.81,0.0031,264.12,,,,,,,
3980.86,0.00315,264.46,,,,,,,
3980.91,0.0032,264.59,,,,,,,
3980.96,0.00326,264.76,,,,,,,
3981.01,0.00331,265.08,,,,,,,
3981.06,0.00336,265.46,,,,,,,
3981.11,0.00341,265.64,,,,,,,
3981.16,0.00346,265.62,,,,,,,
3981.21,0.00351,265.63,,,,,,,
3981.26,0.00356,265.52,,,,,,,
3981.31,0.00361,265.45,,,,,,,
3981.36,0.00366,265.46,,,,,,,
3981.41,0.00371,265.59,,,,,,,
3981.46,0.00376,265.8,,,,,,,
3981.51,0.00381,265.92,,,,,,,
3981.56,0.00386,266.07,,,,,,,
3981.61,0.00391,266.16,,,,,,,
3981.67,0.00396,266.31,,,,,,,
3981.72,0.00401,266.53,,,,,,,
3981.77,0.00406,266.93,,,,,,,
3981.8,0.0041,267.2,,,,,,,
3981.81,0.00411,267.28,,,,,,,
3981.86,0.00416,267.54,,,,,,,
3981.91,0.00421,267.65,,,,,,,
3981.95,0.00426,267.53,,,,,,,
3982.0,0.00432,267.08,,,,,,,
3982.06,0.00437,266.41,,,,,,,
3982.12,0.00442,265.82,,,,,,,
3982.17,0.00447,265.92,,,,,,,
3982.22,0.00452,266.39,,,,,,,
3982.27,0.00457,266.86,,,,,,,
3982.32,0.00462,267.27,,,,,,,
3982.36,0.00467,267.54,,,,,,,
3982.42,0.00472,267.57,,,,,,,
3982.47,0.00477,267.47,,,,,,,
3982.52,0.00482,267.72,,,,,,,
3982.57,0.00487,268.05,,,,,,,
3982.62,0.00492,268.39,,,,,,,
3982.68,0.00497,267.3,,,,,,,
3982.8,0.00493,244.32,,,,,,,
3982.81,0.00492,241.81,,,,,,,
3982.85,0.00487,231.29,,,,,,,
3982.89,0.00482,221.17,,,,,,,
3982.93,0.00477,211.74,,,,,,,
3982.97,0.00472,202.37,,,,,,,
3983.02,0.00467,192.67,,,,,,,
3983.07,0.00462,183.84,,,,,,,
3983.11,0.00457,176.5,,,,,,,
3983.16,0.00452,168.47,,,,,,,
3983.21,0.00447,161.18,,,,,,,
3983.26,0.00442,154.18,,,,,,,
3983.32,0.00437,146.65,,,,,,,
3983.38,0.00431,138.8,,,,,,,
3983.43,0.00426,131.1,,,,,,,
3983.48,0.00421,124.37,,,,,,,
3983.54,0.00416,116.51,,,,,,,
3983.59,0.00411,109.36,,,,,,,
3983.64,0.00406,102.96,,,,,,,
3983.69,0.00401,96.27,,,,,,,
3983.74,0.00396,89.57,,,,,,,
3983.8,0.00391,83.21,,,,,,,
3983.8,0.00391,82.34,,,,,,,
3983.85,0.00386,77.07,,,,,,,
3983.89,0.00381,71.44,,,,,,,
3983.95,0.00376,65.62,,,,,,,
3984.0,0.00371,59.53,,,,,,,
3984.05,0.00366,54.02,,,,,,,
3984.11,0.00361,47.98,,,,,,,
3984.17,0.00356,41.48,,,,,,,
3984.22,0.00351,35.81,,,,,,,
3984.27,0.00346,29.41,,,,,,,
3984.33,0.00341,23.35,,,,,,,
3984.39,0.00336,16.51,,,,,,,
3984.44,0.00331,10.14,,,,,,,
3984.49,0.00326,4.56,,,,,,,
3984.54,0.0032,-1.2,,,,,,,
3984.59,0.00315,-6.84,,,,,,,
3984.65,0.0031,-12.32,,,,,,,
3984.71,0.00305,-17.96,,,,,,,
3984.78,0.003,-22.07,,,,,,,
3984.8,0.00299,-22.24,,,,,,,
3984.95,0.00295,-26.45,,,,,,,
3985.01,0.0029,-32.04,,,,,,,
3985.06,0.00285,-37.26,,,,,,,
3985.12,0.0028,-42.52,,,,,,,
3985.17,0.00275,-48.37,,,,,,,
3985.2,0.0027,-55.69,,,,,,,
3985.23,0.00265,-62.25,,,,,,,
3985.25,0.0026,-68.19,,,,,,,
3985.27,0.00255,-74.07,,,,,,,
3985.29,0.0025,-79.45,,,,,,,
3985.32,0.00244,-84.74,,,,,,,
3985.35,0.00239,-89.33,,,,,,,
3985.38,0.00234,-93.73,,,,,,,
3985.42,0.00229,-97.69,,,,,,,
3985.47,0.00224,-101.3,,,,,,,
3985.52,0.00219,-104.6,,,,,,,
3985.58,0.00214,-108.0,,,,,,,
3985.63,0.00209,-111.4,,,,,,,
3985.68,0.00204,-114.7,,,,,,,
3985.73,0.00199,-118.0,,,,,,,
3985.78,0.00194,-121.3,,,,,,,
3985.8,0.00192,-122.7,,,,,,,
3985.84,0.00189,-124.8,,,,,,,
3985.89,0.00184,-128.5,,,,,,,
3985.94,0.00179,-132.1,,,,,,,
3986.0,0.00174,-135.8,,,,,,,
3986.05,0.00169,-139.6,,,,,,,
3986.1,0.00164,-143.4,,,,,,,
3986.15,0.00158,-146.9,,,,,,,
3986.19,0.00153,-150.2,,,,,,,
3986.24,0.00148,-153.1,,,,,,,
3986.28,0.00143,-155.5,,,,,,,
3986.34,0.00138,-158.0,,,,,,,
3986.39,0.00133,-160.5,,,,,,,
3986.44,0.00128,-163.1,,,,,,,
3986.5,0.00123,-165.8,,,,,,,
3986.55,0.00118,-168.6,,,,,,,
3986.6,0.00113,-171.3,,,,,,,
3986.65,0.00108,-174.1,,,,,,,
3986.7,0.00103,-176.8,,,,,,,
3986.75,0.00098,-179.3,,,,,,,
3986.8,0.00093,-182.1,,,,,,,
3986.85,0.00088,-184.8,,,,,,,
3986.91,0.00083,-187.5,,,,,,,
3986.96,0.00078,-190.2,,,,,,,
3987.01,0.00073,-192.8,,,,,,,
3987.06,0.00068,-195.5,,,,,,,
3987.1,0.00063,-197.8,,,,,,,
3987.16,0.00058,-200.1,,,,,,,
3987.21,0.00053,-202.4,,,,,,,
3987.27,0.00047,-205.1,,,,,,,
3987.32,0.00042,-207.7,,,,,,,
3987.36,0.00037,-210.1,,,,,,,
3987.41,0.00032,-212.2,,,,,,,
3987.46,0.00027,-214.1,,,,,,,
3987.51,0.00022,-215.8,,,,,,,
3987.56,0.00017,-217.6,,,,,,,
3987.61,0.00012,-219.2,,,,,,,
3987.66,7e-05,-220.7,,,,,,,
3987.71,2e-05,-222.2,,,,,,,
3987.76,-3e-05,-223.6,,,,,,,
3987.8,-8e-05,-224.9,,,,,,,
3987.81,-8e-05,-225.0,,,,,,,
3987.86,-0.00013,-226.3,,,,,,,
3987.91,-0.00018,-227.8,,,,,,,
3987.97,-0.00023,-229.4,,,,,,,
3988.02,-0.00028,-231.2,,,,,,,
3988.06,-0.00033,-232.6,,,,,,,
3988.11,-0.00039,-234.1,,,,,,,
3988.16,-0.00044,-235.2,,,,,,,
3988.21,-0.00049,-236.1,,,,,,,
3988.26,-0.00054,-236.9,,,,,,,
3988.31,-0.00059,-237.7,,,,,,,
3988.37,-0.00064,-234.6,,,,,,,
3988.42,-0.00069,-236.5,,,,,,,
3988.47,-0.00074,-238.4,,,,,,,
3988.51,-0.00079,-240.0,,,,,,,
3988.56,-0.00084,-241.3,,,,,,,
3988.61,-0.00089,-242.2,,,,,,,
3988.66,-0.00094,-242.9,,,,,,,
3988.71,-0.00099,-243.6,,,,,,,
3988.76,-0.00104,-244.2,,,,,,,
3988.8,-0.00109,-244.7,,,,,,,
3988.81,-0.00109,-244.8,,,,,,,
3988.86,-0.00114,-245.4,,,,,,,
3988.92,-0.00119,-246.1,,,,,,,
3988.96,-0.00124,-246.9,,,,,,,
3989.01,-0.00129,-247.7,,,,,,,
3989.06,-0.00134,-248.3,,,,,,,
3989.11,-0.0014,-248.9,,,,,,,
3989.17,-0.00145,-249.6,,,,,,,
3989.22,-0.0015,-250.3,,,,,,,
3989.27,-0.00155,-251.4,,,,,,,
3989.32,-0.0016,-252.5,,,,,,,
3989.37,-0.00165,-253.6,,,,,,,
3989.42,-0.0017,-254.7,,,,,,,
3989.47,-0.00175,-255.7,,,,,,,
3989.52,-0.0018,-256.8,,,,,,,
3989.56,-0.00185,-257.6,,,,,,,
3989.61,-0.0019,-258.3,,,,,,,
3989.66,-0.00195,-258.8,,,,,,,
3989.71,-0.002,-259.1,,,,,,,
3989.76,-0.00205,-259.4,,,,,,,
3989.8,-0.00209,-259.7,,,,,,,
3989.81,-0.0021,-259.8,,,,,,,
3989.86,-0.00215,-260.2,,,,,,,
3989.92,-0.0022,-260.5,,,,,,,
3989.96,-0.00225,-261.0,,,,,,,
3990.01,-0.0023,-261.4,,,,,,,
3990.06,-0.00235,-261.8,,,,,,,
3990.11,-0.0024,-262.3,,,,,,,
3990.17,-0.00245,-262.7,,,,,,,
3990.22,-0.0025,-263.1,,,,,,,
3990.27,-0.00256,-263.6,,,,,,,
3990.32,-0.00261,-264.1,,,,,,,
3990.37,-0.00266,-264.6,,,,,,,
3990.42,-0.00271,-265.0,,,,,,,
3990.46,-0.00276,-265.3,,,,,,,
3990.51,-0.00281,-265.5,,,,,,,
3990.57,-0.00286,-265.4,,,,,,,
3990.62,-0.00291,-265.6,,,,,,,
3990.68,-0.00296,-266.2,,,,,,,
3990.72,-0.00301,-266.9,,,,,,,
3990.77,-0.00306,-267.6,,,,,,,
3990.8,-0.00309,-267.9,,,,,,,
3990.82,-0.00311,-268.0,,,,,,,
3990.87,-0.00316,-268.4,,,,,,,
3990.92,-0.00321,-268.8,,,,,,,
3990.97,-0.00326,-269.1,,,,,,,
3991.02,-0.00331,-269.5,,,,,,,
3991.07,-0.00336,-269.6,,,,,,,
3991.12,-0.00341,-269.7,,,,,,,
3991.17,-0.00346,-269.6,,,,,,,
3991.22,-0.00352,-269.7,,,,,,,
3991.27,-0.00357,-269.8,,,,,,,
3991.31,-0.00362,-269.7,,,,,,,
3991.36,-0.00367,-269.4,,,,,,,
3991.45,-0.00372,-264.1,,,,,,,
3991.49,-0.00377,-266.0,,,,,,,
3991.53,-0.00382,-267.7,,,,,,,
3991.58,-0.00387,-269.1,,,,,,,
3991.62,-0.00392,-270.0,,,,,,,
3991.67,-0.00397,-270.6,,,,,,,
3991.71,-0.00402,-270.6,,,,,,,
3991.76,-0.00407,-270.6,,,,,,,
3991.8,-0.00411,-270.5,,,,,,,
3991.81,-0.00412,-270.4,,,,,,,
3991.87,-0.00417,-270.2,,,,,,,
3991.92,-0.00422,-270.2,,,,,,,
3991.98,-0.00427,-270.5,,,,,,,
3992.04,-0.00432,-271.3,,,,,,,
3992.09,-0.00437,-272.5,,,,,,,
3992.14,-0.00442,-273.6,,,,,,,
3992.18,-0.00447,-274.6,,,,,,,
3992.22,-0.00452,-275.2,,,,,,,
3992.27,-0.00457,-275.5,,,,,,,
3992.32,-0.00462,-275.3,,,,,,,
3992.37,-0.00467,-274.9,,,,,,,
3992.42,-0.00472,-274.6,,,,,,,
3992.47,-0.00477,-274.4,,,,,,,
3992.52,-0.00483,-274.2,,,,,,,
3992.58,-0.00488,-274.3,,,,,,,
3992.63,-0.00493,-274.7,,,,,,,
3992.68,-0.00498,-273.9,,,,,,,
3992.8,-0.00494,-250.0,,,,,,,
3992.82,-0.00493,-246.3,,,,,,,
3992.85,-0.00487,-236.6,,,,,,,
3992.88,-0.00482,-226.8,,,,,,,
3992.92,-0.00477,-218.0,,,,,,,
3992.95,-0.00472,-209.8,,,,,,,
3993.0,-0.00467,-201.1,,,,,,,
3993.04,-0.00462,-193.1,,,,,,,
3993.1,-0.00457,-185.1,,,,,,,
3993.15,-0.00452,-177.8,,,,,,,
3993.2,-0.00447,-170.1,,,,,,,
3993.26,-0.00442,-162.3,,,,,,,
3993.32,-0.00437,-153.6,,,,,,,
3993.38,-0.00432,-145.5,,,,,,,
3993.43,-0.00427,-138.0,,,,,,,
3993.48,-0.00422,-130.9,,,,,,,
3993.53,-0.00417,-123.7,,,,,,,
3993.58,-0.00412,-116.5,,,,,,,
3993.63,-0.00406,-109.3,,,,,,,
3993.69,-0.00401,-102.1,,,,,,,
3993.74,-0.00396,-95.91,,,,,,,
3993.79,-0.00391,-88.87,,,,,,,
3993.8,-0.0039,-87.47,,,,,,,
3993.85,-0.00386,-81.48,,,,,,,
3993.9,-0.00381,-74.77,,,,,,,
3993.95,-0.00376,-68.11,,,,,,,
3994.0,-0.00371,-61.79,,,,,,,
3994.05,-0.00366,-55.69,,,,,,,
3994.11,-0.00361,-49.34,,,,,,,
3994.16,-0.00356,-42.92,,,,,,,
3994.22,-0.00351,-36.44,,,,,,,
3994.27,-0.00346,-29.85,,,,,,,
3994.33,-0.00341,-23.52,,,,,,,
3994.38,-0.00336,-17.25,,,,,,,
3994.43,-0.00331,-10.82,,,,,,,
3994.49,-0.00326,-4.45,,,,,,,
3994.54,-0.00321,1.69,,,,,,,
3994.59,-0.00316,7.26,,,,,,,
3994.64,-0.00311,12.93,,,,,,,
3994.69,-0.00306,18.25,,,,,,,
3994.74,-0.00301,23.56,,,,,,,
3994.8,-0.00296,27.24,,,,,,,
3994.82,-0.00296,27.97,,,,,,,
3994.9,-0.0029,33.47,,,,,,,
3994.96,-0.00285,39.45,,,,,,,
3995.0,-0.0028,45.12,,,,,,,
3995.04,-0.00275,50.26,,,,,,,
3995.09,-0.0027,55.5,,,,,,,
3995.15,-0.00265,60.26,,,,,,,
3995.2,-0.0026,64.43,,,,,,,
3995.26,-0.00255,68.06,,,,,,,
3995.32,-0.0025,71.8,,,,,,,
3995.38,-0.00245,75.87,,,,,,,
3995.43,-0.0024,79.78,,,,,,,
3995.49,-0.00235,83.97,,,,,,,
3995.54,-0.0023,88.3,,,,,,,
3995.59,-0.00225,92.84,,,,,,,
3995.63,-0.0022,98.24,,,,,,,
3995.66,-0.00215,103.5,,,,,,,
3995.7,-0.0021,108.43,,,,,,,
3995.73,-0.00205,113.32,,,,,,,
3995.77,-0.002,117.85,,,,,,,
3995.8,-0.00195,121.81,,,,,,,
3995.81,-0.00195,122.2,,,,,,,
3995.85,-0.00189,126.24,,,,,,,
3995.9,-0.00184,130.06,,,,,,,
3995.95,-0.00179,133.81,,,,,,,
3996.0,-0.00174,137.44,,,,,,,
3996.05,-0.00169,140.82,,,,,,,
3996.1,-0.00164,144.37,,,,,,,
3996.15,-0.00159,147.78,,,,,,,
3996.2,-0.00154,151.11,,,,,,,
3996.25,-0.00149,154.45,,,,,,,
3996.3,-0.00144,157.51,,,,,,,
3996.35,-0.00139,160.48,,,,,,,
3996.4,-0.00134,163.36,,,,,,,
3996.45,-0.00129,166.19,,,,,,,
3996.5,-0.00124,168.9,,,,,,,
3996.55,-0.00119,171.5,,,,,,,
3996.6,-0.00114,174.11,,,,,,,
3996.65,-0.00109,176.75,,,,,,,
3996.7,-0.00104,179.11,,,,,,,
3996.75,-0.00098,181.45,,,,,,,
3996.79,-0.00093,183.65,,,,,,,
3996.8,-0.00093,183.96,,,,,,,
3996.85,-0.00088,185.83,,,,,,,
3996.9,-0.00083,188.3,,,,,,,
3996.96,-0.00078,190.89,,,,,,,
3997.01,-0.00073,193.53,,,,,,,
3997.06,-0.00068,196.08,,,,,,,
3997.11,-0.00063,198.62,,,,,,,
3997.16,-0.00058,201.19,,,,,,,
3997.21,-0.00053,203.57,,,,,,,
3997.26,-0.00048,206.05,,,,,,,
3997.31,-0.00043,208.29,,,,,,,
3997.36,-0.00038,210.53,,,,,,,
3997.4,-0.00033,212.43,,,,,,,
3997.45,-0.00028,214.16,,,,,,,
3997.5,-0.00023,215.76,,,,,,,
3997.56,-0.00018,217.39,,,,,,,
3997.61,-0.00013,219.06,,,,,,,
7984.41,0.00495,268.82,,,,,,,
7984.58,0.0049,238.27,,,,,,,
7984.62,0.00485,228.6,,,,,,,
7984.65,0.0048,219.87,,,,,,,
7984.69,0.00475,211.17,,,,,,,
7984.73,0.0047,202.42,,,,,,,
7984.77,0.00465,194.51,,,,,,,
7984.8,0.00462,189.72,,,,,,,
7984.83,0.0046,185.54,,,,,,,
7984.88,0.00455,177.26,,,,,,,
7984.94,0.0045,169.78,,,,,,,
7984.99,0.00445,162.41,,,,,,,
7985.04,0.0044,154.96,,,,,,,
7985.1,0.00435,147.29,,,,,,,
7985.16,0.0043,139.27,,,,,,,
7985.21,0.00425,131.95,,,,,,,
7985.26,0.00419,125.12,,,,,,,
7985.3,0.00414,118.52,,,,,,,
7985.36,0.00409,111.75,,,,,,,
7985.41,0.00404,105.02,,,,,,,
7985.46,0.00399,98.65,,,,,,,
7985.52,0.00394,91.93,,,,,,,
7985.57,0.00389,85.43,,,,,,,
7985.62,0.00384,79.35,,,,,,,
7985.67,0.00379,73.03,,,,,,,
7985.72,0.00374,67.45,,,,,,,
7985.78,0.00369,61.05,,,,,,,
7985.8,0.00367,58.53,,,,,,,
7985.83,0.00364,55.12,,,,,,,
7985.89,0.00359,48.78,,,,,,,
7985.95,0.00354,41.59,,,,,,,
7986.0,0.00349,35.61,,,,,,,
7986.05,0.00344,29.09,,,,,,,
7986.11,0.00339,23.01,,,,,,,
7986.16,0.00334,17.05,,,,,,,
7986.21,0.00329,11.52,,,,,,,
7986.26,0.00324,5.95,,,,,,,
7986.31,0.00319,0.38,,,,,,,
7986.37,0.00314,-5.24,,,,,,,
7986.42,0.00309,-10.52,,,,,,,
7986.47,0.00304,-15.91,,,,,,,
7986.54,0.00299,-20.24,,,,,,,
7986.71,0.00294,-22.93,,,,,,,
7986.77,0.00288,-28.77,,,,,,,
7986.8,0.00286,-31.62,,,,,,,
7986.83,0.00283,-34.09,,,,,,,
7986.89,0.00278,-39.33,,,,,,,
7986.94,0.00273,-44.99,,,,,,,
7986.98,0.00268,-51.46,,,,,,,
7987.01,0.00263,-58.66,,,,,,,
7987.03,0.00258,-64.9,,,,,,,
7987.05,0.00253,-70.92,,,,,,,
7987.08,0.00248,-76.87,,,,,,,
7987.1,0.00243,-81.98,,,,,,,
7987.13,0.00238,-86.96,,,,,,,
7987.16,0.00233,-91.45,,,,,,,
7987.2,0.00228,-95.66,,,,,,,
7987.25,0.00223,-99.59,,,,,,,
7987.3,0.00217,-103.1,,,,,,,
7987.35,0.00212,-106.7,,,,,,,
7987.4,0.00207,-110.2,,,,,,,
7987.45,0.00202,-113.7,,,,,,,
7987.5,0.00197,-117.2,,,,,,,
7987.55,0.00192,-120.6,,,,,,,
7987.61,0.00187,-123.9,,,,,,,
7987.66,0.00182,-127.4,,,,,,,
7987.71,0.00177,-130.6,,,,,,,
7987.76,0.00172,-133.8,,,,,,,
7987.8,0.00168,-136.6,,,,,,,
7987.81,0.00167,-136.9,,,,,,,
7987.86,0.00162,-140.1,,,,,,,
7987.92,0.00157,-143.4,,,,,,,
7987.97,0.00152,-146.6,,,,,,,
7988.01,0.00147,-149.7,,,,,,,
7988.07,0.00142,-152.8,,,,,,,
7988.12,0.00137,-156.1,,,,,,,
7988.17,0.00132,-159.0,,,,,,,
7988.22,0.00127,-162.0,,,,,,,
7988.27,0.00122,-164.8,,,,,,,
7988.31,0.00117,-167.5,,,,,,,
7988.36,0.00112,-170.0,,,,,,,
7988.42,0.00107,-173.1,,,,,,,
7988.47,0.00101,-175.6,,,,,,,
7988.52,0.00096,-178.3,,,,,,,
7988.57,0.00091,-180.8,,,,,,,
7988.62,0.00086,-183.2,,,,,,,
7988.67,0.00081,-185.8,,,,,,,
7988.72,0.00076,-188.0,,,,,,,
7988.77,0.00071,-190.2,,,,,,,
7988.8,0.00068,-191.6,,,,,,,
7988.82,0.00066,-192.4,,,,,,,
7988.87,0.00061,-194.6,,,,,,,
7988.92,0.00056,-196.8,,,,,,,
7988.98,0.00051,-199.0,,,,,,,
7989.03,0.00046,-201.1,,,,,,,
7989.08,0.00041,-203.3,,,,,,,
7989.13,0.00036,-205.4,,,,,,,
7989.18,0.00031,-207.5,,,,,,,
7989.23,0.00026,-209.4,,,,,,,
7989.28,0.00021,-211.2,,,,,,,
7989.33,0.00015,-212.8,,,,,,,
7989.38,0.0001,-214.5,,,,,,,
7989.44,5e-05,-216.4,,,,,,,
7989.49,0.0,-218.4,,,,,,,
7989.54,-5e-05,-220.3,,,,,,,
7989.59,-0.0001,-222.4,,,,,,,
7989.63,-0.00015,-224.2,,,,,,,
7989.68,-0.0002,-225.8,,,,,,,
7989.74,-0.00025,-227.5,,,,,,,
7989.79,-0.0003,-229.1,,,,,,,
7989.8,-0.00032,-229.7,,,,,,,
7989.83,-0.00035,-230.6,,,,,,,
7989.89,-0.0004,-232.0,,,,,,,
7989.94,-0.00045,-233.5,,,,,,,
7990.0,-0.0005,-235.2,,,,,,,
7990.04,-0.00055,-236.8,,,,,,,
7990.09,-0.0006,-238.3,,,,,,,
7990.14,-0.00065,-239.8,,,,,,,
7990.19,-0.0007,-241.1,,,,,,,
7990.24,-0.00076,-242.1,,,,,,,
7990.28,-0.00081,-243.1,,,,,,,
7990.33,-0.00086,-244.0,,,,,,,
7990.38,-0.00091,-244.6,,,,,,,
7990.43,-0.00096,-245.1,,,,,,,
7990.48,-0.00101,-245.5,,,,,,,
7990.54,-0.00106,-245.9,,,,,,,
7990.59,-0.00111,-246.7,,,,,,,
7990.64,-0.00116,-247.8,,,,,,,
7990.69,-0.00121,-238.5,,,,,,,
7990.7,-0.00128,-238.4,,,,,,,
7990.7,-0.00134,-238.3,,,,,,,
7990.7,-0.0014,-238.5,,,,,,,
7990.8,-0.00142,-228.1,,,,,,,
7991.0,-0.00145,-222.4,,,,,,,
7991.04,-0.0015,-227.2,,,,,,,
7991.08,-0.00155,-231.6,,,,,,,
7991.12,-0.0016,-235.6,,,,,,,
7991.15,-0.00165,-239.1,,,,,,,
7991.19,-0.0017,-242.2,,,,,,,
7991.24,-0.00175,-244.7,,,,,,,
7991.29,-0.0018,-246.7,,,,,,,
7991.34,-0.00185,-248.7,,,,,,,
7991.4,-0.0019,-250.5,,,,,,,
7991.45,-0.00195,-252.3,,,,,,,
7991.5,-0.002,-254.1,,,,,,,
7991.54,-0.00205,-255.6,,,,,,,
7991.58,-0.0021,-256.8,,,,,,,
7991.62,-0.00215,-257.6,,,,,,,
7991.68,-0.0022,-257.8,,,,,,,
7991.74,-0.00226,-258.2,,,,,,,
7991.79,-0.00231,-258.8,,,,,,,
7991.8,-0.00232,-259.0,,,,,,,
7991.85,-0.00236,-259.8,,,,,,,
7991.89,-0.00241,-260.8,,,,,,,
7991.94,-0.00246,-261.7,,,,,,,
7991.98,-0.00251,-262.6,,,,,,,
7992.03,-0.00256,-263.0,,,,,,,
7992.08,-0.00261,-263.2,,,,,,,
7992.13,-0.00266,-263.2,,,,,,,
7992.18,-0.00271,-263.3,,,,,,,
7992.24,-0.00276,-263.6,,,,,,,
7992.29,-0.00281,-264.1,,,,,,,
7992.33,-0.00286,-264.6,,,,,,,
7992.38,-0.00291,-264.9,,,,,,,
7992.43,-0.00296,-265.1,,,,,,,
7992.45,-0.00301,-256.6,,,,,,,
7992.46,-0.00307,-256.8,,,,,,,
7992.46,-0.00316,-256.8,,,,,,,
7992.46,-0.00322,-256.8,,,,,,,
7992.46,-0.00327,-256.8,,,,,,,
7992.46,-0.00333,-256.7,,,,,,,
7992.46,-0.00339,-256.7,,,,,,,
7992.46,-0.00348,-256.8,,,,,,,
7992.47,-0.00354,-256.8,,,,,,,
7992.48,-0.00349,-256.2,,,,,,,
7992.53,-0.00343,-235.1,,,,,,,
7992.55,-0.00338,-226.3,,,,,,,
7992.56,-0.00333,-217.9,,,,,,,
7992.58,-0.00328,-210.1,,,,,,,
7992.6,-0.00323,-202.8,,,,,,,
7992.62,-0.00317,-195.7,,,,,,,
7992.65,-0.00312,-188.6,,,,,,,
7992.76,-0.00317,-195.0,,,,,,,
7992.79,-0.00323,-200.7,,,,,,,
7992.8,-0.00326,-204.1,,,,,,,
7992.81,-0.00328,-206.3,,,,,,,
7992.84,-0.00333,-211.4,,,,,,,
7992.88,-0.00338,-216.3,,,,,,,
7992.92,-0.00343,-220.9,,,,,,,
7992.96,-0.00348,-224.7,,,,,,,
7993.01,-0.00353,-227.9,,,,,,,
7993.07,-0.00358,-231.0,,,,,,,
7993.13,-0.00363,-234.1,,,,,,,
7993.18,-0.00368,-237.1,,,,,,,
7993.23,-0.00373,-240.3,,,,,,,
7993.28,-0.00378,-243.5,,,,,,,
7993.33,-0.00383,-246.6,,,,,,,
7993.39,-0.00388,-249.8,,,,,,,
7993.43,-0.00393,-252.8,,,,,,,
7993.48,-0.00398,-255.5,,,,,,,
7993.53,-0.00404,-257.9,,,,,,,
7993.57,-0.00409,-259.9,,,,,,,
7993.62,-0.00414,-261.5,,,,,,,
7993.66,-0.00419,-262.9,,,,,,,
7993.71,-0.00424,-264.0,,,,,,,
7993.76,-0.00429,-265.0,,,,,,,
7993.8,-0.00433,-265.6,,,,,,,
7993.81,-0.00434,-265.8,,,,,,,
7993.86,-0.00439,-266.6,,,,,,,
7993.91,-0.00444,-267.3,,,,,,,
7993.96,-0.00449,-267.9,,,,,,,
7994.01,-0.00454,-268.3,,,,,,,
7994.05,-0.00459,-268.7,,,,,,,
7994.11,-0.00464,-268.9,,,,,,,
7994.16,-0.00469,-269.1,,,,,,,
7994.21,-0.00474,-269.4,,,,,,,
7994.26,-0.00479,-269.7,,,,,,,
7994.31,-0.00484,-270.0,,,,,,,
7994.36,-0.00489,-270.3,,,,,,,
7994.42,-0.00494,-270.2,,,,,,,
7994.59,-0.00489,-241.0,,,,,,,
7994.62,-0.00484,-231.5,,,,,,,
7994.66,-0.00479,-222.2,,,,,,,
7994.69,-0.00474,-214.4,,,,,,,
7994.73,-0.00469,-206.7,,,,,,,
7994.78,-0.00464,-198.3,,,,,,,
7994.8,-0.00461,-194.0,,,,,,,
7994.83,-0.00459,-190.4,,,,,,,
7994.89,-0.00454,-181.9,,,,,,,
7994.94,-0.00449,-173.9,,,,,,,
7995.0,-0.00444,-166.1,,,,,,,
7995.04,-0.00439,-159.2,,,,,,,
7995.1,-0.00434,-151.9,,,,,,,
7995.15,-0.00429,-145.1,,,,,,,
7995.2,-0.00424,-138.3,,,,,,,
7995.25,-0.00418,-131.4,,,,,,,
7995.3,-0.00413,-125.0,,,,,,,
7995.35,-0.00408,-119.0,,,,,,,
7995.41,-0.00403,-112.6,,,,,,,
7995.46,-0.00398,-106.1,,,,,,,
7995.52,-0.00393,-99.25,,,,,,,
7995.58,-0.00388,-92.59,,,,,,,
7995.63,-0.00383,-86.25,,,,,,,
7995.68,-0.00378,-79.71,,,,,,,
7995.73,-0.00373,-73.29,,,,,,,
7995.79,-0.00368,-66.73,,,,,,,
7995.8,-0.00367,-64.86,,,,,,,
7995.84,-0.00363,-60.02,,,,,,,
7995.89,-0.00358,-53.81,,,,,,,
7995.95,-0.00353,-47.21,,,,,,,
7996.0,-0.00348,-40.62,,,,,,,
7996.06,-0.00343,-33.63,,,,,,,
7996.11,-0.00338,-27.26,,,,,,,
7996.17,-0.00333,-20.24,,,,,,,
7996.22,-0.00328,-13.53,,,,,,,
7996.28,-0.00323,-7.02,,,,,,,
7996.33,-0.00318,-0.77,,,,,,,
7996.38,-0.00313,5.59,,,,,,,
7996.43,-0.00308,11.14,,,,,,,
7996.48,-0.00302,17.0,,,,,,,
7996.54,-0.00297,22.84,,,,,,,
7996.61,-0.00292,27.64,,,,,,,
7996.69,-0.00287,33.22,,,,,,,
7996.75,-0.00282,39.07,,,,,,,
7996.79,-0.00277,45.17,,,,,,,
7996.8,-0.00276,46.67,,,,,,,
7996.84,-0.00272,50.9,,,,,,,
7996.89,-0.00267,56.47,,,,,,,
7996.95,-0.00262,61.61,,,,,,,
7997.0,-0.00257,66.36,,,,,,,
7997.06,-0.00252,70.55,,,,,,,
7997.12,-0.00247,75.3,,,,,,,
7997.18,-0.00242,79.81,,,,,,,
7997.24,-0.00237,84.43,,,,,,,
7997.29,-0.00232,89.48,,,,,,,
7997.34,-0.00227,94.43,,,,,,,
7997.39,-0.00222,100.43,,,,,,,
7997.42,-0.00217,105.73,,,,,,,
7997.45,-0.00212,111.02,,,,,,,
7997.48,-0.00206,116.29,,,,,,,
7997.52,-0.00201,120.98,,,,,,,
7997.55,-0.00196,125.85,,,,,,,
7997.59,-0.00191,130.15,,,,,,,
7997.64,-0.00186,133.93,,,,,,,
7997.68,-0.00181,137.48,,,,,,,
7997.73,-0.00176,140.67,,,,,,,
7997.78,-0.00171,144.06,,,,,,,
7997.8,-0.00169,145.26,,,,,,,
7997.84,-0.00166,147.28,,,,,,,
7997.88,-0.00161,150.25,,,,,,,
7997.93,-0.00156,153.33,,,,,,,
7997.98,-0.00151,156.23,,,,,,,
7998.03,-0.00146,158.82,,,,,,,
7998.08,-0.00141,161.49,,,,,,,
7998.13,-0.00136,164.26,,,,,,,
7998.19,-0.00131,166.97,,,,,,,
7998.24,-0.00126,169.78,,,,,,,
7998.29,-0.00121,172.43,,,,,,,
7998.34,-0.00116,175.34,,,,,,,
7998.39,-0.00111,178.4,,,,,,,
7998.44,-0.00106,181.24,,,,,,,
7998.49,-0.001,184.17,,,,,,,
7998.54,-0.00095,186.72,,,,,,,
7998.59,-0.0009,189.4,,,,,,,
7998.64,-0.00085,191.76,,,,,,,
7998.69,-0.0008,194.05,,,,,,,
7998.74,-0.00075,196.29,,,,,,,
7998.8,-0.0007,198.85,,,,,,,
7998.8,-0.0007,199.12,,,,,,,
7998.85,-0.00065,201.39,,,,,,,
7998.9,-0.0006,203.67,,,,,,,
7998.95,-0.00055,206.17,,,,,,,
7999.0,-0.0005,208.41,,,,,,,
7999.04,-0.00045,210.61,,,,,,,
7999.1,-0.0004,212.79,,,,,,,
7999.15,-0.00035,214.89,,,,,,,
7999.19,-0.0003,216.69,,,,,,,
7999.24,-0.00025,218.51,,,,,,,
7999.3,-0.0002,220.3,,,,,,,
7999.35,-0.00015,222.33,,,,,,,
7999.39,-0.0001,224.0,,,,,,,
7999.45,-5e-05,225.67,,,,,,,
7999.5,0.0,227.12,,,,,,,
7999.55,5e-05,228.57,,,,,,,
7999.6,0.00011,229.99,,,,,,,
7999.65,0.00016,231.25,,,,,,,
7999.7,0.00021,232.61,,,,,,,
7999.75,0.00026,233.99,,,,,,,
7999.8,0.00031,235.38,,,,,,,
7999.85,0.00036,236.78,,,,,,,
7999.9,0.00041,238.03,,,,,,,
7999.94,0.00046,239.1,,,,,,,
7999.99,0.00051,239.89,,,,,,,
8000.04,0.00056,240.46,,,,,,,
8000.1,0.00061,241.03,,,,,,,
8000.15,0.00066,241.66,,,,,,,
8000.2,0.00071,242.55,,,,,,,
8000.25,0.00076,243.43,,,,,,,
8000.3,0.00081,244.31,,,,,,,
8000.35,0.00086,245.15,,,,,,,
8000.4,0.00091,245.9,,,,,,,
8000.45,0.00096,246.56,,,,,,,
8000.5,0.00101,247.3,,,,,,,
8000.55,0.00106,248.11,,,,,,,
8000.6,0.00111,248.98,,,,,,,
8000.65,0.00116,249.91,,,,,,,
8000.7,0.00121,250.94,,,,,,,
8000.75,0.00127,251.84,,,,,,,
8000.8,0.00132,241.73,,,,,,,
8000.8,0.00132,238.32,,,,,,,
8000.81,0.00139,239.43,,,,,,,
8000.81,0.00148,239.77,,,,,,,
8000.81,0.00155,239.71,,,,,,,
8000.81,0.00162,239.71,,,,,,,
8000.81,0.0017,239.7,,,,,,,
8000.81,0.00178,239.6,,,,,,,
8000.81,0.00186,239.61,,,,,,,
8000.81,0.00193,239.65,,,,,,,
8000.82,0.00199,239.71,,,,,,,
8000.82,0.00204,239.83,,,,,,,
8000.82,0.00211,239.69,,,,,,,
8000.83,0.00206,239.63,,,,,,,
8000.86,0.002,225.56,,,,,,,
8000.88,0.00195,216.24,,,,,,,
8000.89,0.0019,207.63,,,,,,,
8000.9,0.00185,199.71,,,,,,,
8000.91,0.0018,191.81,,,,,,,
8000.92,0.00174,184.24,,,,,,,
8000.93,0.00169,177.22,,,,,,,
8000.94,0.00164,170.1,,,,,,,
8000.95,0.00159,163.22,,,,,,,
8000.97,0.00154,156.82,,,,,,,
8000.99,0.00149,150.59,,,,,,,
8001.02,0.00144,145.29,,,,,,,
8001.1,0.00149,153.71,,,,,,,
8001.12,0.00154,160.18,,,,,,,
8001.15,0.00159,166.62,,,,,,,
8001.17,0.00164,172.64,,,,,,,
8001.2,0.00169,178.57,,,,,,,
8001.23,0.00174,183.79,,,,,,,
8001.27,0.00179,188.79,,,,,,,
8001.32,0.00184,192.92,,,,,,,
8001.38,0.00189,196.57,,,,,,,
8001.44,0.00194,200.65,,,,,,,
8001.5,0.00199,204.9,,,,,,,
8001.56,0.00204,209.55,,,,,,,
8001.61,0.00209,214.03,,,,,,,
8001.65,0.00215,218.18,,,,,,,
8001.7,0.0022,222.41,,,,,,,
8001.75,0.00225,226.4,,,,,,,
8001.8,0.0023,229.98,,,,,,,
8001.85,0.00235,233.69,,,,,,,
8001.9,0.0024,236.83,,,,,,,
8001.95,0.00245,239.91,,,,,,,
8002.0,0.0025,242.63,,,,,,,
8002.05,0.00255,245.29,,,,,,,
8002.1,0.0026,247.7,,,,,,,
8002.15,0.00265,249.91,,,,,,,
8002.2,0.0027,251.87,,,,,,,
8002.25,0.00275,253.62,,,,,,,
8002.3,0.0028,255.37,,,,,,,
8002.35,0.00285,257.0,,,,,,,
8002.4,0.0029,258.63,,,,,,,
8002.44,0.00295,260.03,,,,,,,
8002.49,0.003,261.21,,,,,,,
8002.54,0.00305,262.27,,,,,,,
8002.59,0.0031,263.2,,,,,,,
8002.63,0.00316,251.33,,,,,,,
8002.63,0.00321,251.55,,,,,,,
8002.64,0.00326,251.56,,,,,,,
8002.73,0.00331,247.82,,,,,,,
8002.8,0.00333,243.31,,,,,,,
8002.87,0.00337,242.46,,,,,,,
8002.92,0.00342,244.57,,,,,,,
8002.97,0.00347,247.1,,,,,,,
8003.01,0.00352,249.82,,,,,,,
8003.05,0.00357,251.92,,,,,,,
8003.09,0.00362,253.67,,,,,,,
8003.15,0.00367,255.11,,,,,,,
8003.2,0.00372,256.34,,,,,,,
8003.25,0.00377,257.46,,,,,,,
8003.3,0.00382,258.62,,,,,,,
8003.35,0.00387,259.74,,,,,,,
8003.4,0.00392,260.76,,,,,,,
8003.46,0.00397,261.8,,,,,,,
8003.5,0.00402,262.77,,,,,,,
8003.55,0.00408,263.63,,,,,,,
8003.6,0.00413,264.47,,,,,,,
8003.65,0.00418,265.05,,,,,,,
8003.7,0.00423,265.7,,,,,,,
8003.75,0.00428,266.25,,,,,,,
8003.8,0.00433,266.74,,,,,,,
8003.8,0.00433,266.75,,,,,,,
8003.85,0.00438,267.3,,,,,,,
8003.9,0.00443,267.78,,,,,,,
8003.95,0.00448,268.11,,,,,,,
8004.0,0.00453,268.39,,,,,,,
8004.05,0.00458,268.54,,,,,,,
8004.1,0.00463,268.82,,,,,,,
8004.15,0.00468,269.08,,,,,,,
8004.2,0.00473,269.33,,,,,,,
8004.25,0.00478,269.5,,,,,,,
8004.3,0.00483,269.56,,,,,,,
8004.35,0.00488,269.51,,,,,,,
9980.26,-0.0001,216.99,,,,,,,
9980.32,-5e-05,218.7,,,,,,,
9980.37,-0.0,220.49,,,,,,,
9980.42,5e-05,222.47,,,,,,,
9980.46,0.0001,223.88,,,,,,,
9980.51,0.00015,225.32,,,,,,,
9980.56,0.0002,226.45,,,,,,,
9980.61,0.00025,227.38,,,,,,,
9980.64,0.0003,224.38,,,,,,,
9980.65,0.00036,224.5,,,,,,,
9980.65,0.00042,224.53,,,,,,,
9980.65,0.00048,224.53,,,,,,,
9980.65,0.00054,224.67,,,,,,,
9980.77,0.00049,203.89,,,,,,,
9980.8,0.00047,199.18,,,,,,,
9980.97,0.00054,202.86,,,,,,,
9981.0,0.00059,207.25,,,,,,,
9981.03,0.00064,211.35,,,,,,,
9981.07,0.00069,215.38,,,,,,,
9981.11,0.00075,218.59,,,,,,,
9981.16,0.0008,221.45,,,,,,,
9981.22,0.00085,223.75,,,,,,,
9981.27,0.0009,226.04,,,,,,,
9981.32,0.00095,228.16,,,,,,,
9981.37,0.001,230.4,,,,,,,
9981.42,0.00105,232.59,,,,,,,
9981.47,0.0011,234.73,,,,,,,
9981.52,0.00115,236.66,,,,,,,
9981.58,0.0012,238.56,,,,,,,
9981.62,0.00125,240.27,,,,,,,
9981.68,0.0013,242.15,,,,,,,
9981.73,0.00135,243.83,,,,,,,
9981.8,0.0014,239.22,,,,,,,
9981.8,0.00141,239.55,,,,,,,
9981.83,0.00145,241.74,,,,,,,
9981.87,0.0015,244.07,,,,,,,
9981.92,0.00155,246.04,,,,,,,
9981.97,0.0016,247.42,,,,,,,
9982.02,0.00165,248.5,,,,,,,
9982.07,0.00171,249.36,,,,,,,
9982.12,0.00176,250.08,,,,,,,
9982.16,0.00181,250.77,,,,,,,
9982.21,0.00186,251.29,,,,,,,
9982.26,0.00191,251.59,,,,,,,
9982.32,0.00196,251.85,,,,,,,
9982.37,0.00201,252.35,,,,,,,
9982.42,0.00206,252.9,,,,,,,
9982.47,0.00211,253.42,,,,,,,
9982.52,0.00216,253.89,,,,,,,
9982.57,0.00221,254.37,,,,,,,
9982.62,0.00226,255.11,,,,,,,
9982.67,0.00231,255.81,,,,,,,
9982.72,0.00236,256.49,,,,,,,
9982.77,0.00241,252.39,,,,,,,
9982.77,0.00247,246.63,,,,,,,
9982.78,0.00254,246.88,,,,,,,
9982.78,0.00264,246.83,,,,,,,
9982.78,0.00269,246.77,,,,,,,
9982.78,0.00274,246.72,,,,,,,
9982.78,0.00283,246.81,,,,,,,
9982.78,0.00289,246.9,,,,,,,
9982.8,0.00288,245.58,,,,,,,
9982.84,0.00284,233.24,,,,,,,
9982.86,0.00279,224.51,,,,,,,
9982.88,0.00274,216.25,,,,,,,
9982.9,0.00269,208.15,,,,,,,
9982.92,0.00264,200.56,,,,,,,
9982.95,0.00259,193.48,,,,,,,
9983.08,0.00264,198.95,,,,,,,
9983.11,0.00269,204.79,,,,,,,
9983.14,0.00274,209.71,,,,,,,
9983.17,0.00279,214.23,,,,,,,
9983.2,0.00284,218.8,,,,,,,
9983.25,0.00289,222.86,,,,,,,
9983.31,0.00294,226.45,,,,,,,
9983.36,0.00299,229.26,,,,,,,
9983.42,0.00304,232.34,,,,,,,
9983.47,0.00309,235.39,,,,,,,
9983.52,0.00314,238.23,,,,,,,
9983.56,0.0032,240.78,,,,,,,
9983.61,0.00325,243.01,,,,,,,
9983.65,0.0033,245.01,,,,,,,
9983.7,0.00335,246.67,,,,,,,
9983.75,0.0034,248.17,,,,,,,
9983.8,0.00345,249.5,,,,,,,
9983.8,0.00345,249.54,,,,,,,
9983.85,0.0035,250.83,,,,,,,
9983.9,0.00355,252.02,,,,,,,
9983.96,0.0036,253.23,,,,,,,
9984.01,0.00365,254.42,,,,,,,
9984.06,0.0037,255.69,,,,,,,
9984.11,0.00375,257.07,,,,,,,
9984.17,0.0038,258.55,,,,,,,
9984.21,0.00385,260.14,,,,,,,
9984.26,0.0039,261.61,,,,,,,
9984.31,0.00395,262.76,,,,,,,
9984.35,0.004,263.67,,,,,,,
9984.4,0.00405,264.32,,,,,,,
9984.45,0.0041,264.75,,,,,,,
9984.5,0.00415,265.13,,,,,,,
9984.55,0.0042,265.35,,,,,,,
9984.6,0.00425,265.42,,,,,,,
9984.65,0.0043,265.35,,,,,,,
9984.67,0.00435,261.82,,,,,,,
9984.7,0.00441,261.61,,,,,,,
9984.76,0.00446,259.37,,,,,,,
9984.8,0.00448,257.73,,,,,,,
9984.84,0.00451,256.51,,,,,,,
9984.91,0.00456,255.33,,,,,,,
9984.96,0.00461,255.52,,,,,,,
9985.01,0.00466,256.56,,,,,,,
9985.06,0.00471,257.78,,,,,,,
9985.1,0.00476,258.71,,,,,,,
9985.15,0.00481,259.38,,,,,,,
9985.19,0.00486,259.72,,,,,,,
9985.24,0.00491,259.71,,,,,,,
9985.29,0.00496,259.1,,,,,,,
9985.46,0.00491,230.67,,,,,,,
9985.5,0.00486,220.7,,,,,,,
9985.53,0.00481,211.67,,,,,,,
9985.57,0.00476,202.98,,,,,,,
9985.61,0.00471,194.86,,,,,,,
9985.65,0.00466,186.88,,,,,,,
9985.7,0.00461,178.86,,,,,,,
9985.76,0.00456,170.74,,,,,,,
9985.8,0.00451,164.42,,,,,,,
9985.81,0.00451,163.21,,,,,,,
9985.86,0.00445,156.06,,,,,,,
9985.92,0.0044,148.68,,,,,,,
9985.97,0.00435,141.39,,,,,,,
9986.02,0.0043,134.54,,,,,,,
9986.08,0.00425,127.56,,,,,,,
9986.13,0.0042,120.81,,,,,,,
9986.18,0.00415,114.43,,,,,,,
9986.23,0.0041,107.65,,,,,,,
9986.29,0.00405,101.12,,,,,,,
9986.34,0.004,94.92,,,,,,,
9986.39,0.00395,88.75,,,,,,,
9986.45,0.0039,82.1,,,,,,,
9986.5,0.00385,76.15,,,,,,,
9986.55,0.0038,69.73,,,,,,,
9986.61,0.00375,62.96,,,,,,,
9986.66,0.0037,56.79,,,,,,,
9986.71,0.00365,50.47,,,,,,,
9986.77,0.0036,44.21,,,,,,,
9986.8,0.00356,39.91,,,,,,,
9986.82,0.00355,38.14,,,,,,,
9986.87,0.0035,32.4,,,,,,,
9986.92,0.00345,26.64,,,,,,,
9986.98,0.0034,20.67,,,,,,,
9987.03,0.00335,14.49,,,,,,,
9987.08,0.0033,8.88,,,,,,,
9987.14,0.00325,3.14,,,,,,,
9987.19,0.00319,-2.52,,,,,,,
9987.24,0.00314,-7.87,,,,,,,
9987.29,0.00309,-12.7,,,,,,,
9987.34,0.00304,-17.51,,,,,,,
9987.41,0.00299,-20.36,,,,,,,
9987.56,0.00294,-21.44,,,,,,,
9987.63,0.00289,-26.42,,,,,,,
9987.69,0.00284,-31.51,,,,,,,
9987.75,0.00279,-36.57,,,,,,,
9987.8,0.00274,-41.61,,,,,,,
9987.8,0.00274,-41.79,,,,,,,
9987.84,0.00269,-47.32,,,,,,,
9987.87,0.00264,-54.03,,,,,,,
9987.89,0.00259,-59.87,,,,,,,
9987.92,0.00254,-65.61,,,,,,,
9987.94,0.00249,-70.9,,,,,,,
9987.97,0.00244,-76.09,,,,,,,
9988.0,0.00238,-81.08,,,,,,,
9988.04,0.00233,-85.97,,,,,,,
9988.09,0.00228,-90.69,,,,,,,
9988.14,0.00223,-95.41,,,,,,,
9988.18,0.00218,-99.3,,,,,,,
9988.23,0.00213,-103.0,,,,,,,
9988.28,0.00208,-106.8,,,,,,,
9988.33,0.00203,-110.2,,,,,,,
9988.37,0.00198,-113.4,,,,,,,
9988.43,0.00193,-116.9,,,,,,,
9988.48,0.00188,-120.1,,,,,,,
9988.53,0.00183,-123.5,,,,,,,
9988.58,0.00178,-126.8,,,,,,,
9988.64,0.00173,-130.2,,,,,,,
9988.69,0.00168,-133.7,,,,,,,
9988.74,0.00163,-136.9,,,,,,,
9988.79,0.00158,-140.2,,,,,,,
9988.8,0.00156,-141.2,,,,,,,
9988.83,0.00153,-143.2,,,,,,,
9988.88,0.00148,-146.2,,,,,,,
9988.94,0.00143,-149.2,,,,,,,
9988.99,0.00138,-152.3,,,,,,,
9989.04,0.00133,-155.5,,,,,,,
9989.09,0.00128,-158.3,,,,,,,
9989.14,0.00123,-161.3,,,,,,,
9989.19,0.00118,-164.1,,,,,,,
9989.24,0.00113,-167.0,,,,,,,
9989.3,0.00107,-170.0,,,,,,,
9989.35,0.00102,-173.0,,,,,,,
9989.4,0.00097,-176.0,,,,,,,
9989.45,0.00092,-178.8,,,,,,,
9989.5,0.00087,-181.5,,,,,,,
9989.54,0.00082,-183.8,,,,,,,
9989.59,0.00077,-186.1,,,,,,,
9989.64,0.00072,-188.2,,,,,,,
9989.7,0.00067,-190.6,,,,,,,
9989.75,0.00062,-193.0,,,,,,,
9989.8,0.00057,-195.5,,,,,,,
9989.8,0.00057,-195.6,,,,,,,
9989.86,0.00052,-198.2,,,,,,,
9989.9,0.00047,-200.5,,,,,,,
9989.95,0.00042,-202.9,,,,,,,
9990.0,0.00037,-204.9,,,,,,,
9990.05,0.00032,-206.8,,,,,,,
9990.1,0.00027,-208.4,,,,,,,
9990.15,0.00022,-210.1,,,,,,,
9990.2,0.00017,-211.8,,,,,,,
9990.25,0.00011,-213.4,,,,,,,
9990.31,6e-05,-215.2,,,,,,,
9990.36,1e-05,-217.0,,,,,,,
9990.4,-4e-05,-218.7,,,,,,,
9990.45,-9e-05,-220.2,,,,,,,
9990.5,-0.00014,-221.5,,,,,,,
9990.55,-0.00019,-222.6,,,,,,,
9990.6,-0.00024,-223.7,,,,,,,
9990.66,-0.00029,-224.8,,,,,,,
9990.72,-0.00034,-226.4,,,,,,,
9990.77,-0.00039,-228.6,,,,,,,
9990.8,-0.00043,-229.9,,,,,,,
9990.82,-0.00044,-230.4,,,,,,,
9990.86,-0.00049,-232.4,,,,,,,
9990.91,-0.00054,-234.2,,,,,,,
9990.93,-0.00061,-229.1,,,,,,,
9990.93,-0.00066,-229.2,,,,,,,
9990.94,-0.00072,-229.2,,,,,,,
9990.94,-0.00078,-229.2,,,,,,,
9990.94,-0.00084,-229.4,,,,,,,
9990.94,-0.00089,-229.5,,,,,,,
9991.03,-0.00084,-214.7,,,,,,,
9991.07,-0.00079,-204.9,,,,,,,
9991.26,-0.00084,-203.4,,,,,,,
9991.3,-0.00089,-208.1,,,,,,,
9991.34,-0.00094,-212.4,,,,,,,
9991.38,-0.00099,-216.0,,,,,,,
9991.42,-0.00104,-219.4,,,,,,,
9991.47,-0.00109,-222.2,,,,,,,
9991.51,-0.00114,-224.4,,,,,,,
9991.57,-0.00119,-226.7,,,,,,,
9991.63,-0.00124,-229.2,,,,,,,
9991.68,-0.00129,-231.8,,,,,,,
9991.74,-0.00134,-234.5,,,,,,,
9991.78,-0.00139,-236.9,,,,,,,
9991.8,-0.00142,-238.2,,,,,,,
9991.82,-0.00144,-239.2,,,,,,,
9991.87,-0.00149,-241.4,,,,,,,
9991.92,-0.00154,-243.1,,,,,,,
9991.97,-0.00159,-244.6,,,,,,,
9992.02,-0.00165,-246.0,,,,,,,
9992.07,-0.0017,-247.3,,,,,,,
9992.12,-0.00175,-238.0,,,,,,,
9992.12,-0.00181,-238.3,,,,,,,
9992.13,-0.00186,-238.6,,,,,,,
9992.19,-0.00191,-237.5,,,,,,,
9992.35,-0.00196,-230.5,,,,,,,
9992.42,-0.00201,-232.4,,,,,,,
9992.47,-0.00206,-235.6,,,,,,,
9992.51,-0.00212,-238.7,,,,,,,
9992.55,-0.00217,-241.4,,,,,,,
9992.59,-0.00222,-244.0,,,,,,,
9992.65,-0.00227,-246.4,,,,,,,
9992.7,-0.00232,-248.5,,,,,,,
9992.75,-0.00237,-250.5,,,,,,,
9992.8,-0.00242,-252.6,,,,,,,
9992.8,-0.00242,-252.7,,,,,,,
9992.85,-0.00247,-254.5,,,,,,,
9992.9,-0.00252,-256.4,,,,,,,
9992.95,-0.00257,-258.1,,,,,,,
9992.99,-0.00262,-259.6,,,,,,,
9993.04,-0.00267,-260.9,,,,,,,
9993.09,-0.00272,-262.0,,,,,,,
9993.11,-0.00277,-253.9,,,,,,,
9993.14,-0.00282,-254.4,,,,,,,
9993.22,-0.00288,-253.1,,,,,,,
9993.3,-0.00293,-252.6,,,,,,,
9993.35,-0.00298,-253.6,,,,,,,
9993.4,-0.00303,-255.2,,,,,,,
9993.45,-0.00308,-256.8,,,,,,,
9993.5,-0.00313,-258.3,,,,,,,
9993.55,-0.00318,-259.8,,,,,,,
9993.6,-0.00323,-261.2,,,,,,,
9993.65,-0.00328,-262.3,,,,,,,
9993.69,-0.00333,-263.2,,,,,,,
9993.72,-0.0034,-255.8,,,,,,,
9993.72,-0.00347,-256.0,,,,,,,
9993.72,-0.00357,-256.0,,,,,,,
9993.72,-0.00363,-256.0,,,,,,,
9993.72,-0.00369,-255.9,,,,,,,
9993.72,-0.00376,-255.9,,,,,,,
9993.73,-0.00381,-256.0,,,,,,,
9993.73,-0.00386,-256.0,,,,,,,
9993.73,-0.00394,-256.1,,,,,,,
9993.78,-0.00389,-241.9,,,,,,,
9993.8,-0.00384,-232.6,,,,,,,
9993.8,-0.00381,-229.2,,,,,,,
9993.81,-0.00378,-224.0,,,,,,,
9993.82,-0.00373,-216.0,,,,,,,
9993.84,-0.00368,-208.7,,,,,,,
9993.85,-0.00363,-201.0,,,,,,,
9993.87,-0.00358,-193.9,,,,,,,
9993.89,-0.00353,-187.3,,,,,,,
9994.03,-0.00358,-194.1,,,,,,,
9994.06,-0.00363,-199.6,,,,,,,
9994.08,-0.00368,-204.8,,,,,,,
9994.11,-0.00373,-210.0,,,,,,,
9994.15,-0.00378,-214.6,,,,,,,
9994.19,-0.00383,-219.0,,,,,,,
9994.25,-0.00388,-222.7,,,,,,,
9994.31,-0.00393,-226.3,,,,,,,
9994.36,-0.00398,-229.9,,,,,,,
9994.41,-0.00403,-233.2,,,,,,,
9994.46,-0.00408,-236.7,,,,,,,
9994.51,-0.00413,-240.1,,,,,,,
9994.56,-0.00419,-243.2,,,,,,,
9994.61,-0.00424,-246.1,,,,,,,
9994.66,-0.00429,-248.7,,,,,,,
9994.7,-0.00434,-251.2,,,,,,,
9994.75,-0.00439,-253.4,,,,,,,
9994.8,-0.00443,-255.4,,,,,,,
9994.8,-0.00444,-255.5,,,,,,,
9994.86,-0.00449,-257.6,,,,,,,
9994.9,-0.00454,-259.4,,,,,,,
9994.95,-0.00459,-261.2,,,,,,,
9995.0,-0.00464,-262.8,,,,,,,
9995.05,-0.00469,-264.0,,,,,,,
9995.09,-0.00474,-265.2,,,,,,,
9995.15,-0.00479,-266.2,,,,,,,
9995.2,-0.00484,-267.0,,,,,,,
9995.25,-0.00489,-267.8,,,,,,,
9995.3,-0.00494,-268.3,,,,,,,
9995.47,-0.00489,-239.5,,,,,,,
9995.51,-0.00484,-230.5,,,,,,,
9995.54,-0.00479,-221.9,,,,,,,
9995.58,-0.00474,-213.3,,,,,,,
9995.62,-0.00469,-204.9,,,,,,,
9995.67,-0.00464,-196.6,,,,,,,
9995.72,-0.00459,-188.3,,,,,,,
9995.77,-0.00454,-180.1,,,,,,,
9995.8,-0.00451,-176.1,,,,,,,
9995.83,-0.00448,-171.9,,,,,,,
9995.88,-0.00443,-164.7,,,,,,,
9995.93,-0.00438,-157.5,,,,,,,
9995.99,-0.00433,-150.3,,,,,,,
9996.04,-0.00428,-143.2,,,,,,,
9996.09,-0.00423,-136.2,,,,,,,
9996.14,-0.00418,-129.4,,,,,,,
9996.19,-0.00413,-123.3,,,,,,,
9996.24,-0.00408,-117.1,,,,,,,
9996.3,-0.00403,-110.1,,,,,,,
9996.36,-0.00398,-103.4,,,,,,,
9996.41,-0.00393,-97.19,,,,,,,
9996.46,-0.00388,-91.18,,,,,,,
9996.51,-0.00383,-85.11,,,,,,,
9996.56,-0.00378,-79.08,,,,,,,
9996.61,-0.00373,-73.48,,,,,,,
9996.67,-0.00368,-66.87,,,,,,,
9996.73,-0.00362,-59.87,,,,,,,
9996.79,-0.00357,-53.33,,,,,,,
9996.8,-0.00356,-51.54,,,,,,,
9996.84,-0.00352,-47.0,,,,,,,
9996.89,-0.00347,-41.08,,,,,,,
9996.93,-0.00342,-35.54,,,,,,,
9996.99,-0.00337,-29.66,,,,,,,
9997.05,-0.00332,-23.34,,,,,,,
9997.1,-0.00327,-17.42,,,,,,,
9997.16,-0.00322,-11.21,,,,,,,
9997.21,-0.00317,-5.55,,,,,,,
9997.26,-0.00312,0.01,,,,,,,
9997.31,-0.00307,5.57,,,,,,,
9997.37,-0.00302,11.67,,,,,,,
9997.42,-0.00297,17.51,,,,,,,
9997.47,-0.00292,23.0,,,,,,,
9997.54,-0.00287,27.24,,,,,,,
9997.63,-0.00282,32.74,,,,,,,
9997.69,-0.00277,39.16,,,,,,,
9997.73,-0.00272,45.65,,,,,,,
9997.78,-0.00267,51.15,,,,,,,
9997.8,-0.00264,54.24,,,,,,,
9997.83,-0.00261,56.6,,,,,,,
9997.89,-0.00256,61.61,,,,,,,
9997.95,-0.00251,66.29,,,,,,,
9998.01,-0.00246,71.12,,,,,,,
9998.07,-0.00241,76.05,,,,,,,
9998.13,-0.00236,81.18,,,,,,,
9998.18,-0.00231,85.95,,,,,,,
9998.24,-0.00226,91.24,,,,,,,
9998.29,-0.00221,96.65,,,,,,,
9998.33,-0.00216,102.42,,,,,,,
9998.36,-0.00211,108.09,,,,,,,
9998.39,-0.00206,113.61,,,,,,,
9998.43,-0.00201,118.88,,,,,,,
9998.46,-0.00196,123.98,,,,,,,
9998.5,-0.00191,128.6,,,,,,,
9998.53,-0.00186,132.81,,,,,,,
9998.58,-0.0018,136.67,,,,,,,
9998.62,-0.00175,139.99,,,,,,,
9998.67,-0.0017,143.38,,,,,,,
9998.72,-0.00165,146.32,,,,,,,
9998.77,-0.0016,149.37,,,,,,,
9998.8,-0.00158,150.92,,,,,,,
9998.83,-0.00155,152.37,,,,,,,
9998.88,-0.0015,155.5,,,,,,,
9998.93,-0.00145,158.88,,,,,,,
9998.98,-0.0014,161.85,,,,,,,
9999.02,-0.00135,164.56,,,,,,,
9999.07,-0.0013,167.26,,,,,,,
9999.12,-0.00125,169.9,,,,,,,
9999.18,-0.0012,172.51,,,,,,,
9999.23,-0.00115,175.09,,,,,,,
9999.28,-0.0011,177.6,,,,,,,
9999.33,-0.00105,180.2,,,,,,,
9999.38,-0.001,182.83,,,,,,,
9999.44,-0.00095,185.88,,,,,,,
9999.49,-0.00089,188.93,,,,,,,
9999.54,-0.00084,191.88,,,,,,,
9999.59,-0.00079,194.71,,,,,,,
9999.64,-0.00074,197.73,,,,,,,
9999.69,-0.00069,200.52,,,,,,,
9999.74,-0.00064,203.35,,,,,,,
9999.79,-0.00059,205.98,,,,,,,
9999.8,-0.00058,206.43,,,,,,,
9999.84,-0.00054,208.25,,,,,,,
9999.89,-0.00049,210.52,,,,,,,
9999.93,-0.00044,212.36,,,,,,,
9999.99,-0.00039,214.24,,,,,,,
10000.03,-0.00034,215.82,,,,,,,
10000.09,-0.00029,217.45,,,,,,,
10000.14,-0.00024,219.12,,,,,,,
10000.19,-0.00019,220.46,,,,,,,
10000.24,-0.00014,222.44,,,,,,,
14967.46,0.00494,212.5,,,,,,,
14967.53,0.00499,210.59,,,,,,,
14967.6,0.00494,199.3,,,,,,,
14967.64,0.00489,192.32,,,,,,,
14967.67,0.00484,185.89,,,,,,,
14967.7,0.00479,180.53,,,,,,,
14967.73,0.00474,175.13,,,,,,,
14967.77,0.00469,169.92,,,,,,,
14967.8,0.00466,166.51,,,,,,,
14967.83,0.00464,164.08,,,,,,,
14967.89,0.00459,158.11,,,,,,,
14967.95,0.00454,152.83,,,,,,,
14968.0,0.00449,147.57,,,,,,,
14968.05,0.00444,142.06,,,,,,,
14968.11,0.00438,136.72,,,,,,,
14968.16,0.00433,131.58,,,,,,,
14968.21,0.00428,126.68,,,,,,,
14968.26,0.00423,122.07,,,,,,,
14968.31,0.00418,117.27,,,,,,,
14968.36,0.00413,112.56,,,,,,,
14968.42,0.00408,107.74,,,,,,,
14968.47,0.00403,103.02,,,,,,,
14968.52,0.00398,98.61,,,,,,,
14968.57,0.00393,94.04,,,,,,,
14968.62,0.00388,89.83,,,,,,,
14968.67,0.00383,85.18,,,,,,,
14968.73,0.00378,80.88,,,,,,,
14968.78,0.00373,76.45,,,,,,,
14968.8,0.00371,74.5,,,,,,,
14968.83,0.00368,71.84,,,,,,,
14968.89,0.00363,67.47,,,,,,,
14968.94,0.00358,63.14,,,,,,,
14968.99,0.00353,58.87,,,,,,,
14969.04,0.00348,54.96,,,,,,,
14969.09,0.00343,50.86,,,,,,,
14969.15,0.00338,46.6,,,,,,,
14969.2,0.00332,42.33,,,,,,,
14969.25,0.00327,38.04,,,,,,,
14969.3,0.00322,34.15,,,,,,,
14969.35,0.00317,30.41,,,,,,,
14969.4,0.00312,26.47,,,,,,,
14969.46,0.00307,22.76,,,,,,,
14969.51,0.00302,18.95,,,,,,,
14969.56,0.00297,15.1,,,,,,,
14969.62,0.00292,10.82,,,,,,,
14969.67,0.00287,6.61,,,,,,,
14969.72,0.00282,2.71,,,,,,,
14969.77,0.00277,-1.12,,,,,,,
14969.8,0.00274,-3.32,,,,,,,
14969.83,0.00272,-5.11,,,,,,,
14969.88,0.00267,-8.98,,,,,,,
14969.94,0.00262,-12.51,,,,,,,
14970.06,0.00257,-14.38,,,,,,,
14970.15,0.00252,-18.4,,,,,,,
14970.21,0.00247,-22.53,,,,,,,
14970.27,0.00242,-26.56,,,,,,,
14970.33,0.00236,-30.13,,,,,,,
14970.39,0.00231,-33.6,,,,,,,
14970.44,0.00226,-37.75,,,,,,,
14970.48,0.00221,-42.18,,,,,,,
14970.5,0.00216,-47.23,,,,,,,
14970.52,0.00211,-51.53,,,,,,,
14970.54,0.00206,-55.57,,,,,,,
14970.57,0.00201,-59.43,,,,,,,
14970.59,0.00196,-63.22,,,,,,,
14970.62,0.00191,-66.49,,,,,,,
14970.65,0.00186,-68.99,,,,,,,
14970.7,0.00181,-70.99,,,,,,,
14970.76,0.00176,-72.82,,,,,,,
14970.8,0.00172,-74.28,,,,,,,
14970.82,0.0017,-75.0,,,,,,,
14970.88,0.00165,-77.34,,,,,,,
14970.93,0.0016,-80.04,,,,,,,
14970.98,0.00155,-82.95,,,,,,,
14971.04,0.0015,-86.03,,,,,,,
14971.09,0.00145,-89.05,,,,,,,
14971.14,0.0014,-91.95,,,,,,,
14971.18,0.00135,-94.64,,,,,,,
14971.23,0.0013,-97.11,,,,,,,
14971.28,0.00125,-99.51,,,,,,,
14971.33,0.0012,-101.5,,,,,,,
14971.38,0.00115,-103.5,,,,,,,
14971.43,0.0011,-105.6,,,,,,,
14971.49,0.00105,-107.8,,,,,,,
14971.54,0.001,-110.2,,,,,,,
14971.6,0.00095,-112.8,,,,,,,
14971.64,0.0009,-115.3,,,,,,,
14971.69,0.00085,-117.6,,,,,,,
14971.73,0.0008,-119.5,,,,,,,
14971.78,0.00075,-121.3,,,,,,,
14971.8,0.00072,-122.0,,,,,,,
14971.83,0.0007,-123.0,,,,,,,
14971.89,0.00064,-124.6,,,,,,,
14971.94,0.00059,-126.3,,,,,,,
14971.99,0.00054,-128.2,,,,,,,
14972.04,0.00049,-130.0,,,,,,,
14972.09,0.00044,-131.7,,,,,,,
14972.15,0.00039,-133.8,,,,,,,
14972.2,0.00034,-135.8,,,,,,,
14972.24,0.00029,-137.7,,,,,,,
14972.29,0.00024,-139.6,,,,,,,
14972.34,0.00019,-141.2,,,,,,,
14972.39,0.00014,-142.7,,,,,,,
14972.45,9e-05,-144.4,,,,,,,
14972.5,4e-05,-146.1,,,,,,,
14972.54,-1e-05,-147.7,,,,,,,
14972.59,-6e-05,-149.2,,,,,,,
14972.64,-0.00011,-150.7,,,,,,,
14972.69,-0.00016,-152.0,,,,,,,
14972.74,-0.00021,-153.3,,,,,,,
14972.8,-0.00027,-154.7,,,,,,,
14972.8,-0.00027,-154.8,,,,,,,
14972.85,-0.00032,-156.1,,,,,,,
14972.9,-0.00037,-157.4,,,,,,,
14972.94,-0.00042,-158.7,,,,,,,
14972.99,-0.00047,-159.8,,,,,,,
14973.04,-0.00052,-160.9,,,,,,,
14973.09,-0.00057,-161.9,,,,,,,
14973.15,-0.00062,-163.0,,,,,,,
14973.2,-0.00067,-164.1,,,,,,,
14973.25,-0.00072,-165.2,,,,,,,
14973.3,-0.00077,-166.3,,,,,,,
14973.35,-0.00082,-167.3,,,,,,,
14973.4,-0.00087,-168.4,,,,,,,
14973.45,-0.00092,-169.4,,,,,,,
14973.51,-0.00097,-170.8,,,,,,,
14973.56,-0.00102,-172.4,,,,,,,
14973.61,-0.00107,-173.9,,,,,,,
14973.65,-0.00112,-175.3,,,,,,,
14973.7,-0.00117,-176.6,,,,,,,
14973.75,-0.00122,-177.5,,,,,,,
14973.8,-0.00127,-178.2,,,,,,,
14973.8,-0.00128,-178.3,,,,,,,
14973.85,-0.00132,-178.9,,,,,,,
14973.9,-0.00137,-179.7,,,,,,,
14973.96,-0.00143,-180.5,,,,,,,
14974.0,-0.00148,-180.9,,,,,,,
14974.03,-0.00153,-181.4,,,,,,,
14974.09,-0.00158,-181.3,,,,,,,
14974.15,-0.00163,-181.1,,,,,,,
14974.21,-0.00168,-181.4,,,,,,,
14974.27,-0.00173,-182.4,,,,,,,
14974.31,-0.00178,-183.6,,,,,,,
14974.35,-0.00183,-184.7,,,,,,,
14974.4,-0.00188,-185.6,,,,,,,
14974.46,-0.00193,-186.4,,,,,,,
14974.51,-0.00198,-187.1,,,,,,,
14974.56,-0.00203,-188.0,,,,,,,
14974.62,-0.00208,-188.9,,,,,,,
14974.67,-0.00213,-190.1,,,,,,,
14974.72,-0.00218,-191.5,,,,,,,
14974.76,-0.00223,-192.6,,,,,,,
14974.8,-0.00228,-193.5,,,,,,,
14974.81,-0.00228,-193.6,,,,,,,
14974.86,-0.00233,-194.4,,,,,,,
14974.91,-0.00238,-195.2,,,,,,,
14974.96,-0.00243,-195.9,,,,,,,
14975.01,-0.00249,-196.6,,,,,,,
14975.06,-0.00254,-195.0,,,,,,,
14975.06,-0.0026,-195.0,,,,,,,
14975.07,-0.00266,-195.0,,,,,,,
14975.07,-0.00271,-195.1,,,,,,,
14975.34,-0.00276,-184.8,,,,,,,
14975.37,-0.00281,-187.5,,,,,,,
14975.41,-0.00287,-190.1,,,,,,,
14975.45,-0.00292,-192.2,,,,,,,
14975.49,-0.00297,-193.7,,,,,,,
14975.54,-0.00302,-194.9,,,,,,,
14975.59,-0.00307,-195.5,,,,,,,
14975.65,-0.00312,-196.2,,,,,,,
14975.7,-0.00317,-196.9,,,,,,,
14975.76,-0.00322,-198.0,,,,,,,
14975.8,-0.00327,-199.0,,,,,,,
14975.81,-0.00327,-199.1,,,,,,,
14975.86,-0.00332,-200.4,,,,,,,
14975.9,-0.00337,-201.6,,,,,,,
14975.95,-0.00342,-202.5,,,,,,,
14976.0,-0.00347,-203.4,,,,,,,
14976.05,-0.00352,-204.0,,,,,,,
14976.11,-0.00357,-204.7,,,,,,,
14976.16,-0.00362,-205.5,,,,,,,
14976.22,-0.00368,-206.7,,,,,,,
14976.26,-0.00373,-204.7,,,,,,,
14976.27,-0.00378,-204.9,,,,,,,
14976.27,-0.00384,-205.0,,,,,,,
14976.28,-0.00389,-205.1,,,,,,,
14976.52,-0.00394,-191.8,,,,,,,
14976.57,-0.00399,-194.9,,,,,,,
14976.6,-0.00404,-197.6,,,,,,,
14976.63,-0.00409,-200.1,,,,,,,
14976.68,-0.00414,-202.5,,,,,,,
14976.73,-0.00419,-204.4,,,,,,,
14976.78,-0.00424,-205.9,,,,,,,
14976.8,-0.00427,-206.6,,,,,,,
14976.83,-0.0043,-207.4,,,,,,,
14976.88,-0.00435,-208.7,,,,,,,
14976.94,-0.0044,-210.3,,,,,,,
14976.99,-0.00445,-211.8,,,,,,,
14977.04,-0.0045,-213.4,,,,,,,
14977.09,-0.00455,-215.0,,,,,,,
14977.12,-0.0046,-214.7,,,,,,,
14977.16,-0.00465,-215.8,,,,,,,
14977.24,-0.0047,-216.6,,,,,,,
14977.31,-0.00475,-218.3,,,,,,,
14977.36,-0.0048,-220.5,,,,,,,
14977.41,-0.00485,-219.3,,,,,,,
14977.41,-0.00492,-219.6,,,,,,,
14977.42,-0.00497,-219.7,,,,,,,
14977.42,-0.00503,-219.9,,,,,,,
14977.57,-0.00498,-201.4,,,,,,,
14977.6,-0.00493,-193.8,,,,,,,
14977.64,-0.00488,-186.1,,,,,,,
14977.68,-0.00483,-178.4,,,,,,,
14977.72,-0.00478,-170.6,,,,,,,
14977.77,-0.00473,-163.2,,,,,,,
14977.8,-0.00469,-158.6,,,,,,,
14977.82,-0.00468,-156.8,,,,,,,
14977.87,-0.00463,-149.7,,,,,,,
14977.93,-0.00458,-142.9,,,,,,,
14977.98,-0.00452,-135.9,,,,,,,
14978.03,-0.00447,-130.1,,,,,,,
14978.08,-0.00442,-124.2,,,,,,,
14978.13,-0.00437,-118.5,,,,,,,
14978.18,-0.00432,-113.0,,,,,,,
14978.23,-0.00427,-107.8,,,,,,,
14978.28,-0.00422,-103.1,,,,,,,
14978.32,-0.00417,-98.53,,,,,,,
14978.38,-0.00412,-93.95,,,,,,,
14978.43,-0.00407,-89.0,,,,,,,
14978.49,-0.00402,-84.24,,,,,,,
14978.54,-0.00397,-79.66,,,,,,,
14978.59,-0.00392,-74.74,,,,,,,
14978.64,-0.00387,-70.25,,,,,,,
14978.7,-0.00382,-65.74,,,,,,,
14978.74,-0.00377,-61.62,,,,,,,
14978.79,-0.00372,-57.43,,,,,,,
14978.8,-0.00371,-56.72,,,,,,,
14978.85,-0.00367,-53.31,,,,,,,
14978.9,-0.00362,-49.28,,,,,,,
14978.95,-0.00357,-45.3,,,,,,,
14979.0,-0.00352,-41.44,,,,,,,
14979.05,-0.00347,-37.6,,,,,,,
14979.11,-0.00341,-33.49,,,,,,,
14979.16,-0.00336,-29.49,,,,,,,
14979.21,-0.00331,-25.63,,,,,,,
14979.26,-0.00326,-21.86,,,,,,,
14979.31,-0.00321,-18.19,,,,,,,
14979.36,-0.00316,-14.27,,,,,,,
14979.42,-0.00311,-10.47,,,,,,,
14979.47,-0.00306,-6.77,,,,,,,
14979.52,-0.00301,-3.27,,,,,,,
14979.57,-0.00296,0.12,,,,,,,
14979.62,-0.00291,3.44,,,,,,,
14979.67,-0.00286,6.62,,,,,,,
14979.72,-0.00281,9.88,,,,,,,
14979.77,-0.00276,12.95,,,,,,,
14979.8,-0.00273,14.71,,,,,,,
14979.82,-0.00271,16.04,,,,,,,
14979.88,-0.00266,19.0,,,,,,,
14979.96,-0.00261,21.63,,,,,,,
14980.03,-0.00256,24.52,,,,,,,
14980.08,-0.00251,28.0,,,,,,,
14980.13,-0.00245,31.87,,,,,,,
14980.16,-0.0024,35.86,,,,,,,
14980.2,-0.00235,39.06,,,,,,,
14980.26,-0.0023,41.77,,,,,,,
14980.34,-0.00225,44.68,,,,,,,
14980.4,-0.0022,47.96,,,,,,,
14980.45,-0.00215,51.14,,,,,,,
14980.51,-0.0021,54.42,,,,,,,
14980.56,-0.00205,57.68,,,,,,,
14980.62,-0.002,60.68,,,,,,,
14980.67,-0.00195,63.48,,,,,,,
14980.73,-0.0019,66.6,,,,,,,
14980.78,-0.00185,69.7,,,,,,,
14980.8,-0.00183,70.85,,,,,,,
14980.84,-0.0018,73.12,,,,,,,
14980.88,-0.00175,76.42,,,,,,,
14980.93,-0.0017,80.12,,,,,,,
14980.96,-0.00165,83.82,,,,,,,
14980.99,-0.0016,87.38,,,,,,,
14981.03,-0.00154,90.67,,,,,,,
14981.06,-0.00149,93.67,,,,,,,
14981.1,-0.00144,96.26,,,,,,,
14981.15,-0.00139,98.84,,,,,,,
14981.2,-0.00134,101.11,,,,,,,
14981.25,-0.00129,103.46,,,,,,,
14981.3,-0.00124,105.87,,,,,,,
14981.35,-0.00119,108.33,,,,,,,
14981.4,-0.00114,110.86,,,,,,,
14981.45,-0.00109,113.22,,,,,,,
14981.5,-0.00104,115.49,,,,,,,
14981.55,-0.00099,117.68,,,,,,,
14981.6,-0.00094,119.78,,,,,,,
14981.64,-0.00089,121.74,,,,,,,
14981.69,-0.00084,123.43,,,,,,,
14981.74,-0.00079,125.13,,,,,,,
14981.8,-0.00074,126.92,,,,,,,
14981.8,-0.00073,127.07,,,,,,,
14981.85,-0.00069,128.76,,,,,,,
14981.9,-0.00064,130.63,,,,,,,
14981.95,-0.00059,132.74,,,,,,,
14982.0,-0.00053,134.62,,,,,,,
14982.05,-0.00048,136.4,,,,,,,
14982.1,-0.00043,138.07,,,,,,,
14982.16,-0.00038,139.86,,,,,,,
14982.21,-0.00033,141.82,,,,,,,
14982.25,-0.00028,143.62,,,,,,,
14982.3,-0.00023,145.35,,,,,,,
14982.36,-0.00018,147.01,,,,,,,
14982.41,-0.00013,148.75,,,,,,,
14982.46,-8e-05,150.58,,,,,,,
14982.51,-3e-05,152.37,,,,,,,
14982.56,2e-05,154.08,,,,,,,
14982.61,7e-05,155.66,,,,,,,
14982.66,0.00012,157.12,,,,,,,
14982.72,0.00017,158.7,,,,,,,
14982.76,0.00022,160.34,,,,,,,
14982.8,0.00026,161.5,,,,,,,
14982.81,0.00027,161.81,,,,,,,
14982.86,0.00032,163.29,,,,,,,
14982.91,0.00037,164.77,,,,,,,
14982.96,0.00042,166.15,,,,,,,
14983.01,0.00048,167.39,,,,,,,
14983.07,0.00053,168.71,,,,,,,
14983.11,0.00058,169.71,,,,,,,
14983.16,0.00063,170.57,,,,,,,
14983.19,0.00068,170.69,,,,,,,
14983.24,0.00073,170.94,,,,,,,
14983.31,0.00078,170.77,,,,,,,
14983.38,0.00083,171.55,,,,,,,
14983.43,0.00088,172.96,,,,,,,
14983.49,0.00093,174.84,,,,,,,
14983.53,0.00098,176.39,,,,,,,
14983.57,0.00103,177.83,,,,,,,
14983.61,0.00108,178.91,,,,,,,
14983.66,0.00113,179.75,,,,,,,
14983.72,0.00118,180.41,,,,,,,
14983.77,0.00123,181.12,,,,,,,
14983.8,0.00127,181.59,,,,,,,
14983.82,0.00128,181.89,,,,,,,
14983.87,0.00133,182.76,,,,,,,
14983.92,0.00139,183.53,,,,,,,
14983.97,0.00144,184.35,,,,,,,
14984.02,0.00149,185.15,,,,,,,
14984.07,0.00154,185.86,,,,,,,
14984.12,0.00159,186.54,,,,,,,
14984.18,0.00164,187.47,,,,,,,
14984.23,0.00169,188.38,,,,,,,
14984.28,0.00174,189.31,,,,,,,
14984.31,0.0018,188.01,,,,,,,
14984.32,0.00186,188.07,,,,,,,
14984.34,0.00191,188.1,,,,,,,
14984.53,0.00196,179.65,,,,,,,
14984.58,0.00201,181.64,,,,,,,
14984.62,0.00206,183.9,,,,,,,
14984.65,0.00211,186.04,,,,,,,
14984.69,0.00216,187.94,,,,,,,
14984.74,0.00221,189.19,,,,,,,
14984.79,0.00226,190.03,,,,,,,
14984.8,0.00227,190.14,,,,,,,
14984.85,0.00231,190.7,,,,,,,
14984.9,0.00236,191.56,,,,,,,
14984.96,0.00241,192.54,,,,,,,
14985.01,0.00246,193.81,,,,,,,
14985.06,0.00252,194.96,,,,,,,
14985.1,0.00257,196.0,,,,,,,
14985.15,0.00262,196.91,,,,,,,
14985.2,0.00267,197.67,,,,,,,
14985.25,0.00272,198.46,,,,,,,
14985.3,0.00277,199.25,,,,,,,
14985.35,0.00282,199.88,,,,,,,
14985.4,0.00287,200.48,,,,,,,
14985.45,0.00292,201.15,,,,,,,
14985.51,0.00297,201.8,,,,,,,
14985.55,0.00302,202.57,,,,,,,
14985.58,0.00308,199.6,,,,,,,
14985.59,0.00315,199.6,,,,,,,
14985.59,0.00322,199.6,,,,,,,
14985.59,0.00327,199.69,,,,,,,
14985.7,0.00322,184.4,,,,,,,
14985.8,0.0032,179.24,,,,,,,
14985.86,0.00327,183.79,,,,,,,
14985.89,0.00333,186.9,,,,,,,
14985.92,0.00338,189.66,,,,,,,
14985.95,0.00343,192.01,,,,,,,
14985.99,0.00348,193.65,,,,,,,
14986.05,0.00353,194.37,,,,,,,
14986.11,0.00358,194.68,,,,,,,
14986.17,0.00363,195.47,,,,,,,
14986.22,0.00368,196.71,,,,,,,
14986.27,0.00373,198.08,,,,,,,
14986.32,0.00378,199.4,,,,,,,
14986.36,0.00383,200.53,,,,,,,
14986.41,0.00388,201.54,,,,,,,
14986.47,0.00393,202.53,,,,,,,
14986.52,0.00398,203.51,,,,,,,
14986.57,0.00403,204.49,,,,,,,
14986.62,0.00408,205.47,,,,,,,
14986.67,0.00413,206.44,,,,,,,
14986.72,0.00418,207.38,,,,,,,
14986.75,0.00424,207.9,,,,,,,
14986.8,0.00429,208.11,,,,,,,
14986.8,0.00429,208.1,,,,,,,
14986.86,0.00434,207.99,,,,,,,
14986.91,0.00439,207.83,,,,,,,
14986.97,0.00444,207.99,,,,,,,
14987.02,0.00449,208.63,,,,,,,
14987.07,0.00454,209.39,,,,,,,
14987.12,0.00459,210.14,,,,,,,
14987.16,0.00464,210.54,,,,,,,
14987.2,0.00469,210.49,,,,,,,
14987.25,0.00474,210.28,,,,,,,
14987.31,0.00479,209.23,,,,,,,
14987.37,0.00484,209.01,,,,,,,
14987.43,0.00489,209.53,,,,,,,
