time,strain,stress,temperature,type,strain_rate,max_strain,title,youngs,poissons
-0.0,5e-05,6.88,950,fatigue,0.001,0.00504,E-11,144000,0.3
0.06,0.0001,14.16,,,,,,,
0.11,0.00015,20.64,,,,,,,
0.18,0.0002,27.07,,,,,,,
0.26,0.00025,34.14,,,,,,,
0.3,0.00027,36.94,,,,,,,
0.36,0.0003,41.94,,,,,,,
0.4,0.00035,50.34,,,,,,,
0.44,0.0004,56.66,,,,,,,
0.47,0.00045,63.54,,,,,,,
0.52,0.0005,70.29,,,,,,,
0.59,0.00055,76.48,,,,,,,
0.66,0.0006,83.5,,,,,,,
0.73,0.00065,90.07,,,,,,,
0.79,0.0007,97.34,,,,,,,
0.8,0.00071,98.29,,,,,,,
0.85,0.00075,103.96,,,,,,,
0.9,0.00081,111.59,,,,,,,
0.93,0.00086,118.47,,,,,,,
0.97,0.00091,125.0,,,,,,,
1.01,0.00096,132.1,,,,,,,
1.04,0.00101,138.16,,,,,,,
1.07,0.00106,144.29,,,,,,,
1.11,0.00111,149.85,,,,,,,
1.15,0.00116,154.99,,,,,,,
1.18,0.00121,158.32,,,,,,,
1.2,0.00126,160.4,,,,,,,
1.23,0.00131,162.02,,,,,,,
1.25,0.00137,163.23,,,,,,,
1.29,0.00142,163.84,,,,,,,
1.3,0.00142,163.78,,,,,,,
1.36,0.00147,163.64,,,,,,,
1.44,0.00152,163.63,,,,,,,
1.5,0.00157,165.42,,,,,,,
1.55,0.00162,167.58,,,,,,,
1.6,0.00167,169.74,,,,,,,
1.63,0.00172,171.05,,,,,,,
1.66,0.00177,171.69,,,,,,,
1.69,0.00182,171.74,,,,,,,
1.7,0.00187,171.17,,,,,,,
1.74,0.00192,169.91,,,,,,,
1.8,0.00196,165.55,,,,,,,
1.82,0.00197,164.03,,,,,,,
1.93,0.00203,159.08,,,,,,,
2.0,0.00208,159.23,,,,,,,
2.05,0.00213,160.63,,,,,,,
2.09,0.00218,162.06,,,,,,,
2.14,0.00223,163.87,,,,,,,
2.18,0.00228,164.96,,,,,,,
2.22,0.00233,165.84,,,,,,,
2.27,0.00238,166.27,,,,,,,
2.3,0.00242,166.15,,,,,,,
2.31,0.00243,166.15,,,,,,,
2.36,0.00248,165.57,,,,,,,
2.41,0.00253,164.63,,,,,,,
2.46,0.00258,163.36,,,,,,,
2.51,0.00263,162.33,,,,,,,
2.57,0.00268,161.43,,,,,,,
2.62,0.00273,160.87,,,,,,,
2.67,0.00278,160.43,,,,,,,
2.72,0.00283,159.89,,,,,,,
2.77,0.00288,159.4,,,,,,,
2.8,0.00292,159.05,,,,,,,
2.82,0.00294,159.13,,,,,,,
2.86,0.00299,158.57,,,,,,,
2.92,0.00304,157.74,,,,,,,
2.96,0.00309,157.12,,,,,,,
3.01,0.00314,156.49,,,,,,,
3.06,0.00319,155.7,,,,,,,
3.11,0.00324,154.92,,,,,,,
3.16,0.00329,154.29,,,,,,,
3.21,0.00334,153.58,,,,,,,
3.26,0.00339,153.0,,,,,,,
3.3,0.00343,152.57,,,,,,,
3.32,0.00344,152.64,,,,,,,
3.36,0.00349,151.88,,,,,,,
3.41,0.00354,151.28,,,,,,,
3.46,0.00359,150.59,,,,,,,
3.51,0.00364,150.23,,,,,,,
3.56,0.00369,149.61,,,,,,,
3.61,0.00374,149.12,,,,,,,
3.66,0.00379,148.67,,,,,,,
3.72,0.00385,148.02,,,,,,,
3.77,0.0039,147.5,,,,,,,
3.8,0.00392,147.0,,,,,,,
3.82,0.00395,146.8,,,,,,,
3.87,0.004,146.74,,,,,,,
3.92,0.00405,146.66,,,,,,,
3.97,0.0041,146.17,,,,,,,
4.02,0.00415,146.07,,,,,,,
4.07,0.0042,145.57,,,,,,,
4.12,0.00425,145.14,,,,,,,
4.18,0.0043,144.83,,,,,,,
4.22,0.00435,144.5,,,,,,,
4.28,0.0044,143.95,,,,,,,
4.3,0.00443,143.12,,,,,,,
4.46,0.00435,113.62,,,,,,,
4.49,0.0043,105.12,,,,,,,
4.53,0.00425,96.28,,,,,,,
4.56,0.0042,89.23,,,,,,,
4.6,0.00415,81.97,,,,,,,
4.65,0.0041,74.06,,,,,,,
4.7,0.00405,66.9,,,,,,,
4.75,0.004,60.21,,,,,,,
4.8,0.00395,53.24,,,,,,,
4.8,0.00395,53.08,,,,,,,
4.87,0.00389,45.16,,,,,,,
4.92,0.00384,38.94,,,,,,,
4.97,0.00379,32.53,,,,,,,
5.02,0.00374,27.5,,,,,,,
5.08,0.00369,19.83,,,,,,,
5.14,0.00364,13.72,,,,,,,
5.19,0.00359,7.96,,,,,,,
5.24,0.00354,2.2,,,,,,,
5.29,0.00349,-3.86,,,,,,,
5.3,0.00348,-4.8,,,,,,,
5.35,0.00344,-9.93,,,,,,,
5.45,0.00339,-13.57,,,,,,,
5.57,0.00334,-18.66,,,,,,,
5.63,0.00329,-24.44,,,,,,,
5.68,0.00324,-31.44,,,,,,,
5.7,0.00318,-36.31,,,,,,,
5.74,0.00313,-42.11,,,,,,,
5.79,0.00308,-48.12,,,,,,,
5.8,0.00305,-49.68,,,,,,,
5.83,0.00303,-52.19,,,,,,,
5.9,0.00298,-56.62,,,,,,,
5.96,0.00293,-61.01,,,,,,,
5.99,0.00288,-65.13,,,,,,,
6.03,0.00283,-71.18,,,,,,,
6.07,0.00278,-76.85,,,,,,,
6.1,0.00273,-81.72,,,,,,,
6.13,0.00268,-86.13,,,,,,,
6.16,0.00263,-91.0,,,,,,,
6.2,0.00258,-94.96,,,,,,,
6.24,0.00252,-98.38,,,,,,,
6.27,0.00247,-100.6,,,,,,,
6.3,0.00244,-103.0,,,,,,,
6.31,0.00242,-103.6,,,,,,,
6.36,0.00237,-106.1,,,,,,,
6.41,0.00232,-108.3,,,,,,,
6.46,0.00227,-110.4,,,,,,,
6.52,0.00222,-112.8,,,,,,,
6.57,0.00217,-114.8,,,,,,,
6.62,0.00212,-116.5,,,,,,,
6.67,0.00207,-118.1,,,,,,,
6.72,0.00202,-120.3,,,,,,,
6.77,0.00197,-121.8,,,,,,,
6.8,0.00193,-123.1,,,,,,,
6.82,0.00191,-123.7,,,,,,,
6.87,0.00186,-125.4,,,,,,,
6.91,0.00181,-126.7,,,,,,,
6.96,0.00176,-127.8,,,,,,,
7.02,0.00171,-129.3,,,,,,,
7.07,0.00166,-130.2,,,,,,,
7.11,0.00161,-130.9,,,,,,,
7.15,0.00156,-131.7,,,,,,,
7.21,0.00151,-132.3,,,,,,,
7.25,0.00146,-132.7,,,,,,,
7.3,0.00141,-133.2,,,,,,,
7.31,0.00141,-133.2,,,,,,,
7.37,0.00136,-133.8,,,,,,,
7.42,0.0013,-134.3,,,,,,,
7.46,0.00125,-134.6,,,,,,,
7.51,0.0012,-135.0,,,,,,,
7.57,0.00115,-135.5,,,,,,,
7.61,0.0011,-135.8,,,,,,,
7.66,0.00105,-136.0,,,,,,,
7.7,0.001,-136.3,,,,,,,
7.77,0.00095,-136.2,,,,,,,
7.8,0.00092,-136.2,,,,,,,
7.82,0.0009,-136.2,,,,,,,
7.87,0.00085,-136.3,,,,,,,
7.92,0.0008,-136.8,,,,,,,
7.97,0.00075,-136.9,,,,,,,
8.02,0.00069,-137.2,,,,,,,
8.07,0.00064,-137.3,,,,,,,
8.12,0.00059,-137.5,,,,,,,
8.18,0.00054,-138.0,,,,,,,
8.22,0.00049,-138.3,,,,,,,
8.28,0.00044,-138.6,,,,,,,
8.3,0.00042,-138.7,,,,,,,
8.33,0.00039,-138.7,,,,,,,
8.38,0.00034,-139.1,,,,,,,
8.42,0.00029,-139.2,,,,,,,
8.48,0.00024,-139.8,,,,,,,
8.53,0.00018,-139.8,,,,,,,
8.57,0.00013,-139.9,,,,,,,
8.62,8e-05,-139.7,,,,,,,
8.68,3e-05,-139.7,,,,,,,
8.73,-2e-05,-139.9,,,,,,,
8.78,-7e-05,-140.4,,,,,,,
8.8,-0.0001,-140.5,,,,,,,
8.83,-0.00012,-140.6,,,,,,,
8.88,-0.00017,-140.3,,,,,,,
8.93,-0.00022,-140.5,,,,,,,
8.98,-0.00027,-140.5,,,,,,,
9.03,-0.00032,-140.4,,,,,,,
9.08,-0.00037,-140.0,,,,,,,
9.13,-0.00042,-139.8,,,,,,,
9.18,-0.00047,-139.8,,,,,,,
9.24,-0.00052,-139.9,,,,,,,
9.28,-0.00057,-140.0,,,,,,,
9.3,-0.0006,-140.2,,,,,,,
9.33,-0.00062,-140.1,,,,,,,
9.38,-0.00068,-140.3,,,,,,,
9.43,-0.00073,-140.4,,,,,,,
9.48,-0.00078,-140.1,,,,,,,
9.53,-0.00083,-140.0,,,,,,,
9.58,-0.00088,-139.7,,,,,,,
9.64,-0.00093,-139.8,,,,,,,
9.69,-0.00098,-139.9,,,,,,,
9.74,-0.00103,-139.9,,,,,,,
9.79,-0.00108,-140.2,,,,,,,
9.8,-0.00109,-140.4,,,,,,,
9.84,-0.00113,-140.6,,,,,,,
9.89,-0.00118,-140.6,,,,,,,
9.94,-0.00123,-140.8,,,,,,,
9.99,-0.00128,-141.1,,,,,,,
10.04,-0.00133,-141.3,,,,,,,
10.09,-0.00138,-141.4,,,,,,,
10.14,-0.00143,-141.5,,,,,,,
10.19,-0.00148,-141.4,,,,,,,
10.24,-0.00154,-141.6,,,,,,,
10.29,-0.00159,-141.6,,,,,,,
10.3,-0.0016,-141.7,,,,,,,
10.34,-0.00164,-141.8,,,,,,,
10.39,-0.00169,-141.9,,,,,,,
10.44,-0.00174,-141.8,,,,,,,
10.49,-0.00179,-141.7,,,,,,,
10.53,-0.00184,-141.6,,,,,,,
10.59,-0.00189,-141.5,,,,,,,
10.64,-0.00194,-141.2,,,,,,,
10.69,-0.00199,-141.0,,,,,,,
10.74,-0.00204,-140.7,,,,,,,
10.79,-0.00209,-140.3,,,,,,,
10.8,-0.0021,-140.4,,,,,,,
10.84,-0.00214,-140.4,,,,,,,
10.9,-0.00219,-140.2,,,,,,,
10.95,-0.00224,-140.4,,,,,,,
10.99,-0.00229,-140.8,,,,,,,
11.05,-0.00234,-141.0,,,,,,,
11.1,-0.0024,-141.1,,,,,,,
11.15,-0.00245,-141.5,,,,,,,
11.2,-0.0025,-141.9,,,,,,,
11.25,-0.00255,-141.9,,,,,,,
11.3,-0.0026,-142.2,,,,,,,
11.3,-0.00261,-142.2,,,,,,,
11.35,-0.00265,-142.1,,,,,,,
11.4,-0.0027,-142.0,,,,,,,
11.45,-0.00275,-142.0,,,,,,,
11.5,-0.0028,-141.7,,,,,,,
11.55,-0.00285,-141.5,,,,,,,
11.6,-0.0029,-141.2,,,,,,,
11.65,-0.00295,-141.2,,,,,,,
11.7,-0.003,-141.1,,,,,,,
11.75,-0.00305,-141.3,,,,,,,
11.8,-0.0031,-141.2,,,,,,,
11.85,-0.00315,-141.3,,,,,,,
11.9,-0.0032,-141.4,,,,,,,
11.96,-0.00326,-141.7,,,,,,,
12.01,-0.00331,-141.9,,,,,,,
12.05,-0.00336,-142.0,,,,,,,
12.1,-0.00341,-142.2,,,,,,,
12.15,-0.00346,-142.1,,,,,,,
12.2,-0.00351,-142.1,,,,,,,
12.25,-0.00356,-142.0,,,,,,,
12.3,-0.00361,-141.8,,,,,,,
12.35,-0.00366,-141.7,,,,,,,
12.41,-0.00371,-141.6,,,,,,,
12.45,-0.00376,-141.8,,,,,,,
12.51,-0.00381,-142.0,,,,,,,
12.56,-0.00386,-142.0,,,,,,,
12.61,-0.00391,-142.0,,,,,,,
12.66,-0.00396,-142.3,,,,,,,
12.7,-0.00401,-142.3,,,,,,,
12.76,-0.00407,-142.6,,,,,,,
12.8,-0.0041,-142.7,,,,,,,
12.81,-0.00412,-142.6,,,,,,,
12.86,-0.00417,-142.9,,,,,,,
12.91,-0.00422,-143.0,,,,,,,
12.96,-0.00427,-143.1,,,,,,,
13.01,-0.00432,-143.0,,,,,,,
13.06,-0.00437,-142.9,,,,,,,
13.12,-0.00442,-141.2,,,,,,,
13.23,-0.00437,-119.5,,,,,,,
13.27,-0.00432,-109.9,,,,,,,
13.3,-0.00427,-101.7,,,,,,,
13.3,-0.00426,-101.2,,,,,,,
13.34,-0.00422,-92.98,,,,,,,
13.37,-0.00417,-85.23,,,,,,,
13.41,-0.00411,-78.7,,,,,,,
13.46,-0.00406,-70.57,,,,,,,
13.51,-0.00401,-63.64,,,,,,,
13.56,-0.00396,-57.03,,,,,,,
13.62,-0.00391,-50.54,,,,,,,
13.68,-0.00386,-43.19,,,,,,,
13.73,-0.00381,-36.3,,,,,,,
13.78,-0.00376,-30.16,,,,,,,
13.8,-0.00375,-27.85,,,,,,,
13.83,-0.00371,-24.21,,,,,,,
13.88,-0.00366,-18.3,,,,,,,
13.94,-0.00361,-11.68,,,,,,,
13.99,-0.00356,-5.71,,,,,,,
14.05,-0.00351,0.1,,,,,,,
14.1,-0.00346,5.87,,,,,,,
14.16,-0.00341,11.6,,,,,,,
14.21,-0.00336,17.11,,,,,,,
14.26,-0.00331,22.77,,,,,,,
14.3,-0.00327,26.68,,,,,,,
14.32,-0.00326,28.12,,,,,,,
14.39,-0.0032,31.46,,,,,,,
14.48,-0.00315,35.57,,,,,,,
14.56,-0.0031,40.38,,,,,,,
14.61,-0.00305,46.54,,,,,,,
14.64,-0.003,52.11,,,,,,,
14.68,-0.00295,57.47,,,,,,,
14.72,-0.0029,62.01,,,,,,,
14.77,-0.00285,66.36,,,,,,,
14.8,-0.00282,68.6,,,,,,,
14.83,-0.0028,70.02,,,,,,,
14.9,-0.00275,73.7,,,,,,,
14.95,-0.0027,77.31,,,,,,,
15.01,-0.00265,80.99,,,,,,,
15.07,-0.0026,84.7,,,,,,,
15.13,-0.00255,88.65,,,,,,,
15.17,-0.00249,92.82,,,,,,,
15.21,-0.00244,97.51,,,,,,,
15.24,-0.00239,102.3,,,,,,,
15.27,-0.00234,106.22,,,,,,,
15.3,-0.0023,109.69,,,,,,,
15.31,-0.00229,110.01,,,,,,,
15.34,-0.00224,113.43,,,,,,,
15.38,-0.00219,116.36,,,,,,,
15.41,-0.00214,118.96,,,,,,,
15.45,-0.00209,120.98,,,,,,,
15.49,-0.00204,122.56,,,,,,,
15.54,-0.00199,123.95,,,,,,,
15.59,-0.00194,124.78,,,,,,,
15.63,-0.00189,125.57,,,,,,,
15.68,-0.00184,125.95,,,,,,,
15.73,-0.00179,126.54,,,,,,,
15.78,-0.00174,126.81,,,,,,,
15.8,-0.00172,126.8,,,,,,,
15.83,-0.00169,126.97,,,,,,,
15.88,-0.00164,127.42,,,,,,,
15.93,-0.00159,127.96,,,,,,,
15.98,-0.00153,128.26,,,,,,,
16.03,-0.00148,128.78,,,,,,,
16.08,-0.00143,128.9,,,,,,,
16.13,-0.00138,129.21,,,,,,,
16.18,-0.00133,129.28,,,,,,,
16.23,-0.00128,129.58,,,,,,,
16.29,-0.00123,129.84,,,,,,,
16.3,-0.00121,130.0,,,,,,,
16.33,-0.00118,130.35,,,,,,,
16.38,-0.00113,130.69,,,,,,,
16.44,-0.00108,130.88,,,,,,,
16.48,-0.00103,131.04,,,,,,,
16.53,-0.00098,131.21,,,,,,,
16.58,-0.00093,131.29,,,,,,,
16.63,-0.00088,131.28,,,,,,,
16.68,-0.00083,131.22,,,,,,,
16.73,-0.00078,131.02,,,,,,,
16.78,-0.00073,130.83,,,,,,,
16.8,-0.0007,130.88,,,,,,,
16.83,-0.00068,131.02,,,,,,,
16.88,-0.00063,131.01,,,,,,,
16.94,-0.00057,131.1,,,,,,,
16.98,-0.00052,131.28,,,,,,,
17.03,-0.00047,131.14,,,,,,,
17.08,-0.00042,131.25,,,,,,,
17.13,-0.00037,131.11,,,,,,,
17.18,-0.00032,130.95,,,,,,,
17.23,-0.00027,130.92,,,,,,,
17.28,-0.00022,130.67,,,,,,,
17.3,-0.0002,130.55,,,,,,,
17.34,-0.00017,130.52,,,,,,,
17.38,-0.00012,130.65,,,,,,,
17.44,-7e-05,130.69,,,,,,,
17.49,-2e-05,130.63,,,,,,,
17.54,3e-05,130.57,,,,,,,
17.59,8e-05,130.24,,,,,,,
17.65,0.00013,130.41,,,,,,,
17.7,0.00018,130.56,,,,,,,
17.75,0.00023,131.01,,,,,,,
17.8,0.00028,131.33,,,,,,,
17.8,0.00029,131.31,,,,,,,
17.85,0.00034,131.69,,,,,,,
17.9,0.00039,131.89,,,,,,,
17.95,0.00044,132.2,,,,,,,
18.0,0.00049,132.45,,,,,,,
18.05,0.00054,132.43,,,,,,,
18.1,0.00059,132.63,,,,,,,
18.15,0.00064,132.72,,,,,,,
18.2,0.00069,132.78,,,,,,,
18.25,0.00074,132.94,,,,,,,
18.3,0.00079,132.94,,,,,,,
18.3,0.00079,132.93,,,,,,,
18.35,0.00084,132.96,,,,,,,
18.4,0.00089,132.88,,,,,,,
18.45,0.00094,133.04,,,,,,,
18.5,0.00099,133.05,,,,,,,
18.55,0.00104,133.23,,,,,,,
18.6,0.00109,133.07,,,,,,,
18.65,0.00114,132.95,,,,,,,
18.7,0.0012,133.01,,,,,,,
18.75,0.00125,133.21,,,,,,,
18.8,0.0013,133.08,,,,,,,
18.8,0.0013,133.06,,,,,,,
18.84,0.00135,132.94,,,,,,,
18.9,0.0014,132.69,,,,,,,
18.95,0.00145,132.41,,,,,,,
19.0,0.0015,132.23,,,,,,,
19.06,0.00155,132.05,,,,,,,
19.11,0.0016,131.95,,,,,,,
19.16,0.00165,132.12,,,,,,,
19.21,0.0017,132.54,,,,,,,
19.26,0.00175,132.89,,,,,,,
19.3,0.0018,133.07,,,,,,,
19.31,0.0018,133.1,,,,,,,
19.36,0.00185,133.39,,,,,,,
19.41,0.0019,133.45,,,,,,,
19.45,0.00195,133.72,,,,,,,
19.51,0.002,133.65,,,,,,,
19.56,0.00205,133.48,,,,,,,
19.61,0.00211,133.72,,,,,,,
19.67,0.00216,133.62,,,,,,,
19.71,0.00221,134.02,,,,,,,
19.77,0.00226,134.17,,,,,,,
19.8,0.00229,134.34,,,,,,,
19.82,0.00231,134.38,,,,,,,
19.87,0.00236,134.52,,,,,,,
19.91,0.00241,134.79,,,,,,,
19.96,0.00246,135.17,,,,,,,
20.01,0.00251,135.03,,,,,,,
20.07,0.00256,135.13,,,,,,,
20.11,0.00261,135.05,,,,,,,
20.16,0.00266,135.18,,,,,,,
20.21,0.00271,135.21,,,,,,,
20.26,0.00276,135.19,,,,,,,
20.3,0.0028,135.22,,,,,,,
20.31,0.00282,135.27,,,,,,,
20.36,0.00287,135.17,,,,,,,
20.41,0.00292,135.0,,,,,,,
20.47,0.00297,134.92,,,,,,,
20.52,0.00302,134.75,,,,,,,
20.57,0.00307,134.59,,,,,,,
20.62,0.00312,134.7,,,,,,,
20.67,0.00317,134.97,,,,,,,
20.72,0.00322,134.67,,,,,,,
20.77,0.00327,134.74,,,,,,,
20.8,0.00331,134.76,,,,,,,
20.82,0.00332,134.82,,,,,,,
20.87,0.00337,134.98,,,,,,,
20.93,0.00342,135.12,,,,,,,
20.97,0.00348,135.06,,,,,,,
21.02,0.00353,135.13,,,,,,,
21.07,0.00358,134.98,,,,,,,
21.13,0.00363,134.82,,,,,,,
21.18,0.00368,134.62,,,,,,,
21.23,0.00373,134.7,,,,,,,
21.28,0.00378,134.72,,,,,,,
21.3,0.00381,134.75,,,,,,,
21.33,0.00383,134.7,,,,,,,
21.38,0.00388,134.73,,,,,,,
21.43,0.00393,134.68,,,,,,,
21.49,0.00398,135.02,,,,,,,
21.53,0.00403,135.45,,,,,,,
21.58,0.00408,135.67,,,,,,,
21.63,0.00413,135.83,,,,,,,
21.68,0.00419,135.56,,,,,,,
21.74,0.00424,135.63,,,,,,,
21.78,0.00429,135.75,,,,,,,
21.8,0.00431,135.87,,,,,,,
21.84,0.00434,135.93,,,,,,,
21.89,0.00439,135.84,,,,,,,
21.93,0.00444,135.72,,,,,,,
21.99,0.00449,135.79,,,,,,,
22.04,0.00454,135.71,,,,,,,
22.08,0.00459,135.62,,,,,,,
22.15,0.00464,132.58,,,,,,,
22.24,0.00459,116.27,,,,,,,
22.28,0.00454,105.94,,,,,,,
22.3,0.00449,99.17,,,,,,,
22.31,0.00449,97.84,,,,,,,
22.34,0.00444,90.03,,,,,,,
22.38,0.00439,83.08,,,,,,,
22.42,0.00434,75.96,,,,,,,
22.46,0.00429,69.02,,,,,,,
22.51,0.00423,62.26,,,,,,,
22.57,0.00418,55.96,,,,,,,
22.62,0.00413,49.68,,,,,,,
22.67,0.00408,43.45,,,,,,,
22.73,0.00403,37.13,,,,,,,
22.78,0.00398,30.89,,,,,,,
22.8,0.00396,29.02,,,,,,,
22.84,0.00393,25.25,,,,,,,
22.89,0.00388,19.45,,,,,,,
22.94,0.00383,14.01,,,,,,,
22.99,0.00378,9.27,,,,,,,
23.05,0.00373,3.33,,,,,,,
23.11,0.00368,-2.05,,,,,,,
23.16,0.00363,-6.9,,,,,,,
23.22,0.00358,-11.18,,,,,,,
23.3,0.00355,-12.31,,,,,,,
23.34,0.00353,-14.13,,,,,,,
23.43,0.00348,-19.25,,,,,,,
23.49,0.00343,-24.18,,,,,,,
23.54,0.00338,-29.4,,,,,,,
23.58,0.00333,-35.59,,,,,,,
23.61,0.00328,-40.37,,,,,,,
23.65,0.00323,-45.85,,,,,,,
23.7,0.00317,-51.03,,,,,,,
23.74,0.00312,-54.28,,,,,,,
23.8,0.00307,-58.62,,,,,,,
23.8,0.00307,-59.03,,,,,,,
23.84,0.00302,-63.4,,,,,,,
23.87,0.00297,-67.15,,,,,,,
23.91,0.00292,-73.04,,,,,,,
23.94,0.00287,-77.35,,,,,,,
23.97,0.00282,-80.83,,,,,,,
24.02,0.00277,-85.73,,,,,,,
24.05,0.00272,-88.88,,,,,,,
24.1,0.00267,-92.56,,,,,,,
24.13,0.00262,-94.99,,,,,,,
24.18,0.00257,-97.95,,,,,,,
24.23,0.00252,-100.4,,,,,,,
24.27,0.00247,-102.3,,,,,,,
24.3,0.00243,-103.6,,,,,,,
24.34,0.00242,-105.0,,,,,,,
24.38,0.00236,-106.8,,,,,,,
24.44,0.00231,-109.1,,,,,,,
24.49,0.00226,-111.5,,,,,,,
24.53,0.00221,-113.3,,,,,,,
24.59,0.00216,-115.5,,,,,,,
24.63,0.00211,-117.4,,,,,,,
24.68,0.00206,-119.2,,,,,,,
24.73,0.00201,-120.8,,,,,,,
24.78,0.00196,-122.5,,,,,,,
24.8,0.00194,-123.0,,,,,,,
24.83,0.00191,-123.8,,,,,,,
24.89,0.00185,-125.1,,,,,,,
24.94,0.0018,-126.3,,,,,,,
24.99,0.00175,-127.2,,,,,,,
25.03,0.0017,-127.7,,,,,,,
25.08,0.00165,-128.4,,,,,,,
25.13,0.0016,-128.9,,,,,,,
25.18,0.00155,-129.2,,,,,,,
25.23,0.00149,-129.3,,,,,,,
25.29,0.00144,-129.6,,,,,,,
25.3,0.00143,-129.7,,,,,,,
25.33,0.00139,-130.0,,,,,,,
25.39,0.00134,-130.3,,,,,,,
25.44,0.00129,-130.8,,,,,,,
25.49,0.00124,-131.2,,,,,,,
25.54,0.00119,-131.5,,,,,,,
25.59,0.00114,-132.0,,,,,,,
25.65,0.00109,-132.1,,,,,,,
25.69,0.00104,-132.4,,,,,,,
25.74,0.00098,-132.7,,,,,,,
25.79,0.00093,-132.9,,,,,,,
25.8,0.00092,-132.8,,,,,,,
25.84,0.00088,-133.2,,,,,,,
25.9,0.00083,-133.5,,,,,,,
25.94,0.00078,-134.1,,,,,,,
25.99,0.00073,-134.3,,,,,,,
26.03,0.00068,-134.2,,,,,,,
26.09,0.00063,-134.0,,,,,,,
26.13,0.00058,-134.2,,,,,,,
26.19,0.00053,-133.8,,,,,,,
26.24,0.00048,-133.8,,,,,,,
26.29,0.00043,-133.7,,,,,,,
26.3,0.00042,-133.6,,,,,,,
26.35,0.00038,-133.8,,,,,,,
26.4,0.00033,-133.9,,,,,,,
26.45,0.00027,-134.3,,,,,,,
26.5,0.00022,-134.3,,,,,,,
26.55,0.00017,-134.7,,,,,,,
26.59,0.00012,-134.8,,,,,,,
26.65,7e-05,-134.5,,,,,,,
26.7,2e-05,-134.4,,,,,,,
26.75,-3e-05,-134.3,,,,,,,
26.8,-8e-05,-134.4,,,,,,,
26.8,-9e-05,-134.3,,,,,,,
26.85,-0.00013,-134.4,,,,,,,
26.9,-0.00019,-134.4,,,,,,,
26.95,-0.00024,-134.4,,,,,,,
27.01,-0.00029,-134.5,,,,,,,
27.06,-0.00034,-134.7,,,,,,,
27.1,-0.00039,-134.7,,,,,,,
27.16,-0.00044,-135.1,,,,,,,
27.21,-0.00049,-135.3,,,,,,,
27.26,-0.00054,-135.4,,,,,,,
27.3,-0.00059,-135.7,,,,,,,
27.3,-0.00059,-135.6,,,,,,,
27.35,-0.00064,-135.6,,,,,,,
27.41,-0.00069,-135.8,,,,,,,
27.46,-0.00074,-135.9,,,,,,,
27.52,-0.00079,-136.0,,,,,,,
27.57,-0.00084,-136.6,,,,,,,
27.61,-0.00089,-136.9,,,,,,,
27.67,-0.00094,-137.4,,,,,,,
27.71,-0.001,-137.8,,,,,,,
27.76,-0.00105,-137.9,,,,,,,
27.8,-0.00109,-137.9,,,,,,,
27.82,-0.0011,-138.1,,,,,,,
27.86,-0.00115,-138.0,,,,,,,
27.92,-0.0012,-138.3,,,,,,,
27.97,-0.00125,-138.4,,,,,,,
28.02,-0.0013,-138.5,,,,,,,
28.07,-0.00135,-138.7,,,,,,,
28.11,-0.0014,-138.6,,,,,,,
28.17,-0.00146,-138.5,,,,,,,
28.22,-0.00151,-138.3,,,,,,,
28.27,-0.00156,-138.1,,,,,,,
28.3,-0.00159,-138.1,,,,,,,
28.32,-0.00161,-138.1,,,,,,,
28.37,-0.00166,-138.1,,,,,,,
28.42,-0.00171,-138.0,,,,,,,
28.47,-0.00176,-138.1,,,,,,,
28.52,-0.00181,-138.0,,,,,,,
28.58,-0.00186,-138.2,,,,,,,
28.62,-0.00191,-138.2,,,,,,,
28.67,-0.00196,-138.3,,,,,,,
28.73,-0.00201,-138.5,,,,,,,
28.78,-0.00206,-138.6,,,,,,,
28.8,-0.00209,-138.5,,,,,,,
28.83,-0.00211,-138.7,,,,,,,
28.88,-0.00216,-139.1,,,,,,,
28.93,-0.00222,-139.3,,,,,,,
28.98,-0.00227,-139.7,,,,,,,
29.03,-0.00232,-139.6,,,,,,,
29.07,-0.00237,-139.5,,,,,,,
29.13,-0.00242,-139.4,,,,,,,
29.18,-0.00247,-139.3,,,,,,,
29.23,-0.00252,-139.1,,,,,,,
29.28,-0.00257,-139.2,,,,,,,
29.3,-0.00259,-139.2,,,,,,,
29.33,-0.00262,-139.3,,,,,,,
29.39,-0.00267,-139.4,,,,,,,
29.44,-0.00272,-139.5,,,,,,,
29.48,-0.00277,-139.5,,,,,,,
29.53,-0.00282,-139.7,,,,,,,
29.58,-0.00287,-139.8,,,,,,,
29.64,-0.00293,-139.7,,,,,,,
29.69,-0.00298,-139.8,,,,,,,
29.74,-0.00303,-139.7,,,,,,,
29.8,-0.00308,-139.8,,,,,,,
29.8,-0.00309,-139.8,,,,,,,
29.84,-0.00313,-140.0,,,,,,,
29.89,-0.00318,-140.2,,,,,,,
29.94,-0.00323,-140.6,,,,,,,
29.99,-0.00328,-140.9,,,,,,,
30.05,-0.00333,-141.3,,,,,,,
30.09,-0.00338,-141.6,,,,,,,
30.14,-0.00343,-141.7,,,,,,,
30.19,-0.00348,-141.9,,,,,,,
30.25,-0.00354,-142.1,,,,,,,
30.29,-0.00359,-142.0,,,,,,,
30.3,-0.0036,-142.0,,,,,,,
30.35,-0.00364,-141.9,,,,,,,
30.4,-0.00369,-141.8,,,,,,,
30.45,-0.00374,-141.8,,,,,,,
30.5,-0.00379,-141.9,,,,,,,
30.55,-0.00384,-141.9,,,,,,,
30.6,-0.00389,-142.2,,,,,,,
30.65,-0.00394,-142.5,,,,,,,
30.7,-0.00399,-142.5,,,,,,,
30.76,-0.00404,-142.8,,,,,,,
30.8,-0.00409,-142.9,,,,,,,
30.8,-0.00409,-142.9,,,,,,,
30.85,-0.00414,-143.4,,,,,,,
30.89,-0.00419,-143.6,,,,,,,
30.94,-0.00424,-143.5,,,,,,,
30.99,-0.00429,-143.3,,,,,,,
31.04,-0.00434,-143.1,,,,,,,
31.1,-0.00439,-142.3,,,,,,,
31.15,-0.00445,-142.1,,,,,,,
31.2,-0.0045,-141.8,,,,,,,
31.26,-0.00455,-141.8,,,,,,,
31.3,-0.00459,-141.4,,,,,,,
31.31,-0.0046,-141.2,,,,,,,
31.47,-0.00455,-115.4,,,,,,,
31.5,-0.0045,-106.5,,,,,,,
31.53,-0.00444,-98.47,,,,,,,
31.57,-0.00439,-90.84,,,,,,,
31.61,-0.00434,-83.16,,,,,,,
31.64,-0.00429,-76.45,,,,,,,
31.7,-0.00424,-68.58,,,,,,,
31.75,-0.00419,-61.18,,,,,,,
31.8,-0.00414,-55.04,,,,,,,
31.81,-0.00414,-54.45,,,,,,,
31.87,-0.00409,-47.69,,,,,,,
31.92,-0.00404,-41.11,,,,,,,
31.98,-0.00399,-34.82,,,,,,,
32.03,-0.00394,-28.58,,,,,,,
32.08,-0.00389,-22.44,,,,,,,
32.13,-0.00384,-16.36,,,,,,,
32.18,-0.00379,-10.74,,,,,,,
32.24,-0.00373,-4.72,,,,,,,
32.29,-0.00368,0.74,,,,,,,
32.3,-0.00367,2.13,,,,,,,
32.34,-0.00363,5.95,,,,,,,
32.39,-0.00358,11.15,,,,,,,
32.44,-0.00353,16.48,,,,,,,
32.5,-0.00348,21.44,,,,,,,
32.55,-0.00343,26.34,,,,,,,
32.61,-0.00338,30.22,,,,,,,
32.7,-0.00333,33.9,,,,,,,
32.8,-0.00328,38.15,,,,,,,
32.8,-0.00328,38.57,,,,,,,
32.85,-0.00323,43.68,,,,,,,
32.89,-0.00318,49.63,,,,,,,
32.92,-0.00313,55.09,,,,,,,
32.96,-0.00308,59.69,,,,,,,
33.0,-0.00303,64.09,,,,,,,
33.06,-0.00298,67.82,,,,,,,
33.11,-0.00293,70.86,,,,,,,
33.18,-0.00288,74.44,,,,,,,
33.24,-0.00283,78.04,,,,,,,
33.3,-0.00278,81.56,,,,,,,
33.3,-0.00277,82.03,,,,,,,
33.35,-0.00273,85.22,,,,,,,
33.41,-0.00268,89.17,,,,,,,
33.45,-0.00262,93.42,,,,,,,
33.48,-0.00257,97.76,,,,,,,
33.52,-0.00252,102.35,,,,,,,
33.55,-0.00247,106.44,,,,,,,
33.59,-0.00242,110.32,,,,,,,
33.63,-0.00237,113.81,,,,,,,
33.66,-0.00232,116.63,,,,,,,
33.7,-0.00227,119.11,,,,,,,
33.74,-0.00222,121.42,,,,,,,
33.79,-0.00216,123.38,,,,,,,
33.8,-0.00215,123.92,,,,,,,
33.83,-0.00211,124.64,,,,,,,
33.88,-0.00206,125.79,,,,,,,
33.93,-0.00201,126.74,,,,,,,
33.98,-0.00196,127.62,,,,,,,
34.03,-0.00191,128.27,,,,,,,
34.08,-0.00186,128.7,,,,,,,
34.13,-0.00181,129.38,,,,,,,
34.17,-0.00176,129.7,,,,,,,
34.22,-0.00171,130.25,,,,,,,
34.27,-0.00166,130.33,,,,,,,
34.3,-0.00163,130.62,,,,,,,
34.32,-0.00161,130.6,,,,,,,
34.37,-0.00156,130.7,,,,,,,
34.42,-0.00151,130.57,,,,,,,
34.47,-0.00146,130.4,,,,,,,
34.52,-0.00141,130.53,,,,,,,
34.57,-0.00136,130.6,,,,,,,
34.62,-0.0013,130.48,,,,,,,
34.67,-0.00125,130.52,,,,,,,
34.72,-0.0012,130.49,,,,,,,
34.77,-0.00115,130.73,,,,,,,
34.8,-0.00112,130.61,,,,,,,
34.82,-0.0011,130.69,,,,,,,
34.88,-0.00105,130.48,,,,,,,
34.93,-0.001,130.48,,,,,,,
34.98,-0.00095,130.66,,,,,,,
35.03,-0.0009,130.83,,,,,,,
35.08,-0.00085,131.0,,,,,,,
35.13,-0.0008,131.23,,,,,,,
35.17,-0.00075,131.69,,,,,,,
35.23,-0.0007,131.53,,,,,,,
35.27,-0.00065,131.69,,,,,,,
35.3,-0.00062,131.67,,,,,,,
35.33,-0.00059,131.6,,,,,,,
35.37,-0.00054,131.6,,,,,,,
35.43,-0.00049,131.47,,,,,,,
35.48,-0.00044,131.37,,,,,,,
35.53,-0.00039,131.22,,,,,,,
35.58,-0.00034,131.2,,,,,,,
35.62,-0.00029,130.93,,,,,,,
35.68,-0.00024,130.78,,,,,,,
35.72,-0.00019,130.88,,,,,,,
35.78,-0.00014,130.61,,,,,,,
35.8,-0.00011,130.68,,,,,,,
35.83,-9e-05,130.59,,,,,,,
74.71,-4e-05,132.33,,,,,,,
74.77,1e-05,132.16,,,,,,,
74.8,5e-05,131.87,,,,,,,
74.82,7e-05,131.71,,,,,,,
74.87,0.00012,131.38,,,,,,,
74.93,0.00017,131.09,,,,,,,
74.98,0.00022,130.99,,,,,,,
75.03,0.00027,130.92,,,,,,,
75.09,0.00032,131.31,,,,,,,
75.14,0.00037,131.61,,,,,,,
75.19,0.00042,131.87,,,,,,,
75.24,0.00047,132.45,,,,,,,
75.29,0.00052,132.87,,,,,,,
75.3,0.00054,133.19,,,,,,,
75.33,0.00057,133.15,,,,,,,
75.38,0.00062,133.25,,,,,,,
75.43,0.00067,133.48,,,,,,,
75.48,0.00072,133.76,,,,,,,
75.53,0.00077,133.72,,,,,,,
75.58,0.00082,133.53,,,,,,,
75.63,0.00087,133.3,,,,,,,
75.68,0.00092,133.27,,,,,,,
75.73,0.00098,133.11,,,,,,,
75.78,0.00103,132.95,,,,,,,
75.8,0.00105,133.05,,,,,,,
75.83,0.00108,132.97,,,,,,,
75.89,0.00113,132.92,,,,,,,
75.93,0.00118,132.91,,,,,,,
75.98,0.00123,132.94,,,,,,,
76.03,0.00128,132.87,,,,,,,
76.09,0.00133,133.02,,,,,,,
76.13,0.00138,133.07,,,,,,,
76.18,0.00143,132.93,,,,,,,
76.23,0.00148,132.87,,,,,,,
76.28,0.00153,132.75,,,,,,,
76.3,0.00155,132.75,,,,,,,
76.34,0.00158,132.59,,,,,,,
76.39,0.00163,132.83,,,,,,,
76.44,0.00168,133.04,,,,,,,
76.49,0.00173,133.39,,,,,,,
76.54,0.00179,133.63,,,,,,,
76.59,0.00184,133.81,,,,,,,
76.64,0.00189,134.04,,,,,,,
76.69,0.00194,134.06,,,,,,,
76.74,0.00199,134.19,,,,,,,
76.79,0.00204,134.36,,,,,,,
76.8,0.00205,134.37,,,,,,,
76.84,0.00209,134.32,,,,,,,
76.89,0.00214,134.27,,,,,,,
76.94,0.00219,134.15,,,,,,,
76.99,0.00224,134.09,,,,,,,
77.05,0.00229,134.55,,,,,,,
77.1,0.00234,134.78,,,,,,,
77.15,0.00239,135.21,,,,,,,
77.19,0.00244,135.72,,,,,,,
77.24,0.00249,136.03,,,,,,,
77.29,0.00254,136.0,,,,,,,
77.3,0.00255,136.08,,,,,,,
77.34,0.00259,135.97,,,,,,,
77.39,0.00264,135.71,,,,,,,
77.45,0.0027,135.44,,,,,,,
77.5,0.00275,135.57,,,,,,,
77.55,0.0028,135.55,,,,,,,
77.6,0.00285,135.65,,,,,,,
77.65,0.0029,136.05,,,,,,,
77.69,0.00295,136.2,,,,,,,
77.75,0.003,136.14,,,,,,,
77.8,0.00305,136.33,,,,,,,
77.8,0.00305,136.27,,,,,,,
77.84,0.0031,136.43,,,,,,,
77.9,0.00315,136.08,,,,,,,
77.95,0.0032,136.0,,,,,,,
78.0,0.00325,135.98,,,,,,,
78.05,0.0033,135.76,,,,,,,
78.1,0.00335,135.79,,,,,,,
78.15,0.0034,135.59,,,,,,,
78.2,0.00346,135.76,,,,,,,
78.25,0.00351,136.0,,,,,,,
78.3,0.00356,135.97,,,,,,,
78.3,0.00356,135.97,,,,,,,
78.35,0.00361,135.86,,,,,,,
78.41,0.00366,135.75,,,,,,,
78.46,0.00371,135.62,,,,,,,
78.51,0.00376,135.81,,,,,,,
78.56,0.00381,135.96,,,,,,,
78.61,0.00386,136.04,,,,,,,
78.66,0.00391,136.15,,,,,,,
78.71,0.00396,136.19,,,,,,,
78.76,0.00401,136.25,,,,,,,
78.8,0.00405,136.28,,,,,,,
78.81,0.00406,136.43,,,,,,,
78.87,0.00412,136.63,,,,,,,
78.91,0.00417,136.87,,,,,,,
78.96,0.00422,137.06,,,,,,,
79.01,0.00427,137.06,,,,,,,
79.06,0.00432,137.13,,,,,,,
79.11,0.00437,136.81,,,,,,,
79.16,0.00442,137.1,,,,,,,
79.21,0.00447,137.02,,,,,,,
79.26,0.00452,137.02,,,,,,,
79.3,0.00456,136.97,,,,,,,
79.31,0.00457,137.12,,,,,,,
79.36,0.00462,137.1,,,,,,,
79.41,0.00467,137.19,,,,,,,
79.46,0.00472,137.1,,,,,,,
79.51,0.00477,137.14,,,,,,,
79.57,0.00482,137.21,,,,,,,
79.62,0.00487,137.29,,,,,,,
79.66,0.00492,137.43,,,,,,,
79.71,0.00497,137.43,,,,,,,
79.77,0.00502,135.93,,,,,,,
79.8,0.00504,132.9,,,,,,,
79.9,0.00497,113.82,,,,,,,
79.93,0.00492,104.68,,,,,,,
79.96,0.00487,97.08,,,,,,,
80.0,0.00482,89.02,,,,,,,
80.03,0.00477,82.06,,,,,,,
80.07,0.00472,74.48,,,,,,,
80.12,0.00467,67.82,,,,,,,
80.17,0.00462,61.0,,,,,,,
80.23,0.00457,54.75,,,,,,,
80.28,0.00452,48.21,,,,,,,
80.3,0.0045,46.07,,,,,,,
80.34,0.00447,41.69,,,,,,,
80.39,0.00442,36.12,,,,,,,
80.44,0.00437,30.34,,,,,,,
80.5,0.00431,24.63,,,,,,,
80.55,0.00426,19.23,,,,,,,
80.6,0.00421,14.11,,,,,,,
80.65,0.00416,8.76,,,,,,,
80.71,0.00411,3.08,,,,,,,
80.76,0.00406,-1.8,,,,,,,
80.8,0.00403,-5.71,,,,,,,
80.81,0.00401,-6.38,,,,,,,
80.88,0.00396,-11.0,,,,,,,
81.0,0.00391,-13.57,,,,,,,
81.08,0.00386,-18.03,,,,,,,
81.15,0.00381,-22.72,,,,,,,
81.22,0.00376,-28.35,,,,,,,
81.26,0.00371,-34.34,,,,,,,
81.29,0.00366,-39.8,,,,,,,
81.3,0.00364,-41.89,,,,,,,
81.33,0.00361,-45.69,,,,,,,
81.36,0.00356,-50.05,,,,,,,
81.4,0.00351,-54.51,,,,,,,
81.45,0.00346,-58.37,,,,,,,
81.5,0.0034,-63.19,,,,,,,
81.53,0.00335,-67.91,,,,,,,
81.56,0.0033,-71.61,,,,,,,
81.6,0.00325,-76.88,,,,,,,
81.63,0.0032,-80.7,,,,,,,
81.67,0.00315,-84.67,,,,,,,
81.71,0.0031,-88.08,,,,,,,
81.75,0.00305,-91.34,,,,,,,
81.8,0.003,-94.63,,,,,,,
81.8,0.003,-94.8,,,,,,,
81.84,0.00295,-97.13,,,,,,,
81.89,0.0029,-99.64,,,,,,,
81.95,0.00285,-102.2,,,,,,,
82.0,0.0028,-104.7,,,,,,,
82.04,0.00275,-107.0,,,,,,,
82.1,0.00269,-109.5,,,,,,,
82.14,0.00264,-111.4,,,,,,,
82.2,0.00259,-113.8,,,,,,,
82.25,0.00254,-115.7,,,,,,,
82.29,0.00249,-117.4,,,,,,,
82.3,0.00248,-117.7,,,,,,,
82.35,0.00244,-119.4,,,,,,,
82.4,0.00239,-121.1,,,,,,,
82.45,0.00234,-122.6,,,,,,,
82.5,0.00229,-123.8,,,,,,,
82.54,0.00224,-124.5,,,,,,,
82.6,0.00219,-125.7,,,,,,,
82.64,0.00214,-126.4,,,,,,,
82.69,0.00209,-127.2,,,,,,,
82.74,0.00203,-128.0,,,,,,,
82.78,0.00198,-128.6,,,,,,,
82.8,0.00197,-129.0,,,,,,,
82.84,0.00193,-129.3,,,,,,,
82.89,0.00188,-129.8,,,,,,,
82.93,0.00183,-130.2,,,,,,,
82.98,0.00178,-130.5,,,,,,,
83.05,0.00173,-130.7,,,,,,,
83.09,0.00168,-131.0,,,,,,,
83.15,0.00162,-131.1,,,,,,,
83.2,0.00157,-131.4,,,,,,,
83.25,0.00152,-131.9,,,,,,,
83.3,0.00147,-132.2,,,,,,,
83.34,0.00142,-132.4,,,,,,,
83.4,0.00137,-132.2,,,,,,,
83.45,0.00132,-131.9,,,,,,,
83.5,0.00126,-132.2,,,,,,,
83.56,0.00121,-132.1,,,,,,,
83.61,0.00116,-132.2,,,,,,,
83.66,0.00111,-132.5,,,,,,,
83.72,0.00106,-133.1,,,,,,,
83.76,0.00101,-134.0,,,,,,,
83.8,0.00097,-134.5,,,,,,,
83.81,0.00096,-134.6,,,,,,,
83.86,0.00091,-135.0,,,,,,,
83.91,0.00086,-135.4,,,,,,,
83.96,0.00081,-135.7,,,,,,,
84.0,0.00076,-135.6,,,,,,,
84.06,0.00071,-135.7,,,,,,,
84.1,0.00066,-135.5,,,,,,,
84.15,0.00061,-135.4,,,,,,,
84.2,0.00056,-135.1,,,,,,,
84.26,0.00051,-134.9,,,,,,,
84.3,0.00046,-134.5,,,,,,,
84.31,0.00046,-134.4,,,,,,,
84.36,0.00041,-134.7,,,,,,,
84.41,0.00036,-134.4,,,,,,,
84.46,0.0003,-134.3,,,,,,,
84.51,0.00025,-134.4,,,,,,,
84.56,0.0002,-134.4,,,,,,,
84.61,0.00015,-134.8,,,,,,,
84.67,0.0001,-134.9,,,,,,,
84.71,5e-05,-135.3,,,,,,,
84.76,-0.0,-135.8,,,,,,,
84.8,-4e-05,-135.9,,,,,,,
84.81,-5e-05,-136.1,,,,,,,
84.86,-0.0001,-136.1,,,,,,,
84.92,-0.00015,-136.2,,,,,,,
84.96,-0.0002,-136.5,,,,,,,
85.02,-0.00025,-136.4,,,,,,,
85.06,-0.0003,-136.5,,,,,,,
85.12,-0.00036,-136.5,,,,,,,
85.17,-0.00041,-136.7,,,,,,,
85.21,-0.00046,-136.8,,,,,,,
85.26,-0.00051,-136.8,,,,,,,
85.3,-0.00054,-136.7,,,,,,,
85.32,-0.00056,-136.6,,,,,,,
85.37,-0.00061,-136.6,,,,,,,
85.42,-0.00066,-136.5,,,,,,,
85.48,-0.00071,-136.4,,,,,,,
85.52,-0.00076,-136.7,,,,,,,
85.58,-0.00081,-136.8,,,,,,,
85.63,-0.00086,-136.8,,,,,,,
85.68,-0.00092,-136.9,,,,,,,
85.73,-0.00097,-137.2,,,,,,,
85.78,-0.00102,-137.5,,,,,,,
85.8,-0.00104,-137.3,,,,,,,
85.83,-0.00107,-137.5,,,,,,,
85.88,-0.00112,-137.6,,,,,,,
85.93,-0.00117,-137.6,,,,,,,
85.98,-0.00122,-138.0,,,,,,,
86.03,-0.00127,-137.9,,,,,,,
86.08,-0.00132,-138.1,,,,,,,
86.13,-0.00137,-138.0,,,,,,,
86.18,-0.00142,-138.0,,,,,,,
86.23,-0.00147,-137.9,,,,,,,
86.29,-0.00152,-138.0,,,,,,,
86.3,-0.00154,-138.0,,,,,,,
86.33,-0.00157,-138.3,,,,,,,
86.39,-0.00162,-138.6,,,,,,,
86.44,-0.00168,-139.0,,,,,,,
86.48,-0.00173,-139.2,,,,,,,
86.53,-0.00178,-139.4,,,,,,,
86.57,-0.00183,-139.2,,,,,,,
86.63,-0.00188,-138.9,,,,,,,
86.68,-0.00193,-138.6,,,,,,,
86.73,-0.00198,-138.2,,,,,,,
86.79,-0.00203,-138.2,,,,,,,
86.8,-0.00205,-138.1,,,,,,,
86.83,-0.00208,-138.2,,,,,,,
86.88,-0.00213,-138.2,,,,,,,
86.94,-0.00218,-138.4,,,,,,,
86.99,-0.00223,-138.5,,,,,,,
87.04,-0.00228,-138.5,,,,,,,
87.1,-0.00234,-138.6,,,,,,,
87.15,-0.00239,-138.7,,,,,,,
87.2,-0.00244,-138.9,,,,,,,
87.25,-0.00249,-139.3,,,,,,,
87.29,-0.00254,-139.5,,,,,,,
87.3,-0.00254,-139.3,,,,,,,
87.35,-0.00259,-139.8,,,,,,,
87.4,-0.00264,-140.1,,,,,,,
87.45,-0.00269,-140.2,,,,,,,
87.5,-0.00275,-140.3,,,,,,,
87.55,-0.0028,-140.1,,,,,,,
87.59,-0.00285,-140.1,,,,,,,
87.65,-0.0029,-140.0,,,,,,,
87.7,-0.00295,-140.0,,,,,,,
87.76,-0.003,-139.8,,,,,,,
87.8,-0.00305,-139.9,,,,,,,
87.82,-0.00305,-140.1,,,,,,,
87.85,-0.0031,-140.2,,,,,,,
87.9,-0.00315,-140.3,,,,,,,
87.95,-0.0032,-140.5,,,,,,,
88.0,-0.00325,-140.9,,,,,,,
88.06,-0.00331,-141.1,,,,,,,
88.11,-0.00336,-141.4,,,,,,,
88.16,-0.00341,-141.7,,,,,,,
88.21,-0.00346,-141.7,,,,,,,
88.26,-0.00351,-141.7,,,,,,,
88.3,-0.00355,-141.4,,,,,,,
88.31,-0.00356,-141.5,,,,,,,
88.36,-0.00361,-141.6,,,,,,,
88.41,-0.00366,-141.6,,,,,,,
88.46,-0.00371,-141.7,,,,,,,
88.51,-0.00376,-141.7,,,,,,,
88.56,-0.00381,-141.8,,,,,,,
88.62,-0.00386,-141.8,,,,,,,
88.67,-0.00391,-142.0,,,,,,,
88.72,-0.00397,-142.2,,,,,,,
88.77,-0.00402,-142.5,,,,,,,
88.8,-0.00405,-142.5,,,,,,,
88.82,-0.00407,-142.7,,,,,,,
88.87,-0.00412,-143.0,,,,,,,
88.92,-0.00417,-143.1,,,,,,,
88.96,-0.00422,-143.2,,,,,,,
89.01,-0.00427,-143.3,,,,,,,
89.07,-0.00432,-143.2,,,,,,,
89.12,-0.00437,-143.0,,,,,,,
89.16,-0.00442,-142.8,,,,,,,
89.23,-0.00447,-142.6,,,,,,,
89.28,-0.00452,-142.8,,,,,,,
89.3,-0.00455,-142.8,,,,,,,
89.33,-0.00457,-142.9,,,,,,,
89.38,-0.00462,-143.3,,,,,,,
89.43,-0.00467,-143.3,,,,,,,
89.48,-0.00473,-143.5,,,,,,,
89.53,-0.00478,-143.6,,,,,,,
89.58,-0.00483,-143.7,,,,,,,
89.63,-0.00488,-143.8,,,,,,,
89.68,-0.00493,-143.9,,,,,,,
89.73,-0.00498,-143.9,,,,,,,
89.8,-0.00503,-140.9,,,,,,,
89.8,-0.00502,-139.9,,,,,,,
89.89,-0.00498,-123.2,,,,,,,
89.92,-0.00493,-113.5,,,,,,,
89.96,-0.00488,-104.9,,,,,,,
89.99,-0.00483,-96.63,,,,,,,
90.02,-0.00477,-89.62,,,,,,,
90.07,-0.00472,-81.33,,,,,,,
90.11,-0.00467,-74.95,,,,,,,
90.16,-0.00462,-68.05,,,,,,,
90.22,-0.00457,-60.26,,,,,,,
90.28,-0.00452,-52.83,,,,,,,
90.3,-0.0045,-50.12,,,,,,,
90.33,-0.00447,-46.61,,,,,,,
90.39,-0.00442,-39.67,,,,,,,
90.44,-0.00437,-33.68,,,,,,,
90.5,-0.00432,-26.84,,,,,,,
90.55,-0.00427,-20.46,,,,,,,
90.6,-0.00422,-15.46,,,,,,,
90.65,-0.00417,-9.6,,,,,,,
90.7,-0.00412,-4.02,,,,,,,
90.75,-0.00407,1.27,,,,,,,
90.8,-0.00402,6.52,,,,,,,
90.8,-0.00401,6.56,,,,,,,
90.86,-0.00396,12.14,,,,,,,
90.91,-0.00391,16.62,,,,,,,
90.96,-0.00386,21.7,,,,,,,
91.02,-0.00381,26.97,,,,,,,
91.09,-0.00376,30.54,,,,,,,
91.19,-0.00371,34.17,,,,,,,
91.27,-0.00366,38.75,,,,,,,
91.3,-0.00363,42.07,,,,,,,
91.32,-0.00361,44.52,,,,,,,
91.36,-0.00356,50.73,,,,,,,
91.39,-0.00351,55.89,,,,,,,
91.42,-0.00346,60.45,,,,,,,
91.47,-0.00341,65.04,,,,,,,
91.53,-0.00336,68.8,,,,,,,
91.6,-0.00331,72.52,,,,,,,
91.66,-0.00326,75.98,,,,,,,
91.72,-0.00321,79.98,,,,,,,
91.77,-0.00316,83.3,,,,,,,
91.8,-0.00313,85.61,,,,,,,
91.83,-0.00311,87.78,,,,,,,
91.88,-0.00305,92.06,,,,,,,
91.92,-0.003,96.77,,,,,,,
91.95,-0.00295,101.28,,,,,,,
91.98,-0.0029,105.46,,,,,,,
92.02,-0.00285,109.14,,,,,,,
92.05,-0.0028,113.27,,,,,,,
92.08,-0.00275,116.14,,,,,,,
92.12,-0.0027,118.94,,,,,,,
92.16,-0.00265,121.23,,,,,,,
92.2,-0.0026,123.15,,,,,,,
92.25,-0.00255,124.52,,,,,,,
92.29,-0.0025,125.52,,,,,,,
92.3,-0.00248,125.59,,,,,,,
92.34,-0.00245,126.23,,,,,,,
92.39,-0.00239,126.78,,,,,,,
92.44,-0.00234,127.36,,,,,,,
92.49,-0.00229,127.64,,,,,,,
92.54,-0.00224,128.05,,,,,,,
92.6,-0.00219,128.63,,,,,,,
92.64,-0.00214,129.33,,,,,,,
92.69,-0.00209,130.08,,,,,,,
92.74,-0.00204,130.47,,,,,,,
92.79,-0.00199,130.96,,,,,,,
92.8,-0.00197,131.05,,,,,,,
92.84,-0.00194,131.24,,,,,,,
92.88,-0.00189,131.34,,,,,,,
92.93,-0.00184,131.44,,,,,,,
92.99,-0.00179,131.41,,,,,,,
93.04,-0.00174,131.21,,,,,,,
93.09,-0.00169,131.3,,,,,,,
93.14,-0.00164,131.16,,,,,,,
93.19,-0.00158,131.27,,,,,,,
93.24,-0.00153,131.57,,,,,,,
93.29,-0.00148,131.96,,,,,,,
93.3,-0.00147,131.97,,,,,,,
93.34,-0.00143,132.09,,,,,,,
93.39,-0.00138,132.27,,,,,,,
93.44,-0.00133,132.13,,,,,,,
93.49,-0.00128,131.86,,,,,,,
93.54,-0.00123,131.55,,,,,,,
93.59,-0.00118,131.4,,,,,,,
93.64,-0.00113,131.47,,,,,,,
93.69,-0.00108,131.35,,,,,,,
93.74,-0.00103,131.44,,,,,,,
93.79,-0.00098,131.4,,,,,,,
93.8,-0.00097,131.37,,,,,,,
93.84,-0.00093,131.63,,,,,,,
93.89,-0.00088,131.77,,,,,,,
93.94,-0.00083,131.96,,,,,,,
93.99,-0.00077,131.88,,,,,,,
94.04,-0.00072,131.7,,,,,,,
94.09,-0.00067,131.47,,,,,,,
94.14,-0.00062,131.27,,,,,,,
94.19,-0.00057,131.24,,,,,,,
94.24,-0.00052,131.26,,,,,,,
94.3,-0.00047,131.22,,,,,,,
94.3,-0.00046,131.16,,,,,,,
94.35,-0.00042,131.32,,,,,,,
94.4,-0.00037,131.17,,,,,,,
94.44,-0.00032,131.38,,,,,,,
94.5,-0.00027,131.35,,,,,,,
94.55,-0.00022,131.42,,,,,,,
94.6,-0.00017,131.57,,,,,,,
94.65,-0.00012,131.68,,,,,,,
94.7,-7e-05,131.83,,,,,,,
174.76,-4e-05,132.22,,,,,,,
174.8,0.0,132.07,,,,,,,
174.81,1e-05,132.12,,,,,,,
174.87,6e-05,131.9,,,,,,,
174.92,0.00011,131.65,,,,,,,
174.97,0.00016,131.64,,,,,,,
175.02,0.00021,131.7,,,,,,,
175.07,0.00027,131.82,,,,,,,
175.12,0.00032,131.78,,,,,,,
175.17,0.00037,131.86,,,,,,,
175.22,0.00042,132.07,,,,,,,
175.27,0.00047,131.94,,,,,,,
175.3,0.0005,132.03,,,,,,,
175.32,0.00052,132.25,,,,,,,
175.37,0.00057,132.11,,,,,,,
175.42,0.00062,131.98,,,,,,,
175.47,0.00067,132.04,,,,,,,
175.52,0.00072,131.9,,,,,,,
175.58,0.00077,131.91,,,,,,,
175.62,0.00082,132.23,,,,,,,
175.67,0.00087,132.33,,,,,,,
175.72,0.00092,132.32,,,,,,,
175.78,0.00097,132.16,,,,,,,
175.8,0.001,132.25,,,,,,,
175.83,0.00102,132.51,,,,,,,
175.88,0.00107,132.75,,,,,,,
175.92,0.00112,132.85,,,,,,,
175.97,0.00118,133.09,,,,,,,
176.03,0.00123,132.99,,,,,,,
176.07,0.00128,132.8,,,,,,,
176.13,0.00133,132.86,,,,,,,
176.18,0.00138,133.12,,,,,,,
176.23,0.00143,133.24,,,,,,,
176.28,0.00148,133.56,,,,,,,
176.3,0.0015,133.59,,,,,,,
176.33,0.00153,133.96,,,,,,,
176.37,0.00158,133.97,,,,,,,
176.43,0.00163,133.95,,,,,,,
176.48,0.00168,133.86,,,,,,,
176.53,0.00173,133.78,,,,,,,
176.57,0.00178,133.63,,,,,,,
176.63,0.00183,133.65,,,,,,,
176.68,0.00188,133.76,,,,,,,
176.73,0.00193,133.54,,,,,,,
176.78,0.00198,133.82,,,,,,,
176.8,0.002,133.85,,,,,,,
176.83,0.00203,133.85,,,,,,,
176.88,0.00208,133.98,,,,,,,
176.93,0.00213,134.38,,,,,,,
176.98,0.00218,134.6,,,,,,,
177.03,0.00223,134.6,,,,,,,
177.08,0.00229,134.69,,,,,,,
177.13,0.00234,134.68,,,,,,,
177.18,0.00239,134.56,,,,,,,
177.23,0.00244,134.92,,,,,,,
177.28,0.00249,134.92,,,,,,,
177.3,0.00251,134.87,,,,,,,
177.33,0.00254,134.74,,,,,,,
177.38,0.00259,134.86,,,,,,,
177.43,0.00264,134.87,,,,,,,
177.49,0.00269,135.05,,,,,,,
177.54,0.00274,135.16,,,,,,,
177.59,0.00279,135.12,,,,,,,
177.64,0.00284,135.17,,,,,,,
177.69,0.00289,135.27,,,,,,,
177.74,0.00294,135.42,,,,,,,
177.79,0.00299,135.62,,,,,,,
177.8,0.00301,135.72,,,,,,,
177.84,0.00304,135.87,,,,,,,
177.89,0.00309,136.05,,,,,,,
177.94,0.00314,135.87,,,,,,,
177.99,0.0032,135.76,,,,,,,
178.04,0.00325,135.82,,,,,,,
178.09,0.0033,135.68,,,,,,,
178.14,0.00335,135.74,,,,,,,
178.19,0.0034,135.73,,,,,,,
178.24,0.00345,135.77,,,,,,,
178.29,0.0035,135.76,,,,,,,
178.3,0.00351,135.73,,,,,,,
178.34,0.00355,135.65,,,,,,,
178.39,0.0036,135.81,,,,,,,
178.44,0.00365,135.89,,,,,,,
178.49,0.0037,135.93,,,,,,,
178.54,0.00375,135.93,,,,,,,
178.59,0.0038,135.99,,,,,,,
178.65,0.00385,136.17,,,,,,,
178.69,0.0039,136.07,,,,,,,
178.74,0.00395,136.15,,,,,,,
178.8,0.004,136.18,,,,,,,
178.8,0.00401,136.23,,,,,,,
178.84,0.00405,136.14,,,,,,,
178.9,0.0041,136.2,,,,,,,
178.94,0.00416,136.35,,,,,,,
178.99,0.00421,136.34,,,,,,,
179.04,0.00426,136.41,,,,,,,
179.1,0.00431,136.38,,,,,,,
179.15,0.00436,136.33,,,,,,,
179.2,0.00441,136.34,,,,,,,
179.25,0.00446,136.17,,,,,,,
179.3,0.00451,136.17,,,,,,,
179.36,0.00456,136.36,,,,,,,
179.4,0.00461,136.47,,,,,,,
179.45,0.00466,136.7,,,,,,,
179.5,0.00471,136.85,,,,,,,
179.55,0.00476,136.82,,,,,,,
179.6,0.00481,136.8,,,,,,,
179.66,0.00487,136.72,,,,,,,
179.71,0.00492,136.7,,,,,,,
179.76,0.00497,137.03,,,,,,,
179.8,0.00501,136.45,,,,,,,
179.81,0.00502,135.83,,,,,,,
179.94,0.00497,113.68,,,,,,,
179.98,0.00491,105.37,,,,,,,
180.01,0.00486,96.11,,,,,,,
180.05,0.00481,89.27,,,,,,,
180.08,0.00476,82.1,,,,,,,
180.13,0.00471,74.41,,,,,,,
180.17,0.00466,67.61,,,,,,,
180.22,0.00461,61.22,,,,,,,
180.28,0.00456,54.75,,,,,,,
180.3,0.00454,51.71,,,,,,,
180.34,0.00451,47.78,,,,,,,
180.39,0.00446,41.81,,,,,,,
180.44,0.00441,35.51,,,,,,,
180.5,0.00436,29.67,,,,,,,
180.55,0.00431,23.76,,,,,,,
180.6,0.00426,18.35,,,,,,,
180.65,0.00421,13.18,,,,,,,
180.71,0.00416,7.85,,,,,,,
180.76,0.00411,2.78,,,,,,,
180.8,0.00406,-1.46,,,,,,,
180.82,0.00405,-3.11,,,,,,,
180.86,0.004,-7.26,,,,,,,
180.93,0.00395,-11.07,,,,,,,
181.06,0.0039,-14.52,,,,,,,
181.14,0.00385,-18.75,,,,,,,
181.21,0.0038,-24.24,,,,,,,
181.27,0.00375,-29.59,,,,,,,
181.3,0.0037,-34.1,,,,,,,
181.34,0.00365,-41.34,,,,,,,
181.37,0.0036,-45.97,,,,,,,
181.41,0.00355,-50.75,,,,,,,
181.45,0.0035,-54.41,,,,,,,
181.5,0.00344,-58.83,,,,,,,
181.55,0.00339,-63.6,,,,,,,
181.59,0.00334,-68.61,,,,,,,
181.62,0.00329,-73.18,,,,,,,
181.66,0.00324,-77.9,,,,,,,
181.69,0.00319,-82.02,,,,,,,
181.73,0.00314,-86.06,,,,,,,
181.76,0.00309,-89.18,,,,,,,
181.8,0.00304,-92.56,,,,,,,
181.81,0.00304,-92.73,,,,,,,
181.85,0.00299,-95.78,,,,,,,
181.89,0.00294,-98.01,,,,,,,
181.95,0.00289,-100.5,,,,,,,
182.01,0.00284,-103.2,,,,,,,
182.05,0.00279,-105.1,,,,,,,
182.1,0.00274,-106.8,,,,,,,
182.16,0.00268,-109.9,,,,,,,
182.21,0.00263,-112.0,,,,,,,
182.26,0.00258,-114.3,,,,,,,
182.3,0.00253,-116.0,,,,,,,
182.3,0.00252,-115.9,,,,,,,
182.36,0.00248,-118.1,,,,,,,
182.39,0.00243,-119.4,,,,,,,
182.45,0.00238,-120.9,,,,,,,
182.51,0.00233,-122.4,,,,,,,
182.56,0.00228,-123.7,,,,,,,
182.61,0.00222,-124.7,,,,,,,
182.66,0.00217,-125.8,,,,,,,
182.7,0.00212,-126.6,,,,,,,
182.74,0.00207,-127.4,,,,,,,
182.8,0.00202,-128.2,,,,,,,
182.81,0.00202,-128.5,,,,,,,
182.85,0.00197,-129.1,,,,,,,
182.9,0.00192,-129.6,,,,,,,
182.95,0.00187,-130.1,,,,,,,
183.01,0.00182,-130.2,,,,,,,
183.05,0.00177,-130.9,,,,,,,
183.1,0.00172,-131.3,,,,,,,
183.14,0.00166,-131.5,,,,,,,
183.2,0.00161,-131.6,,,,,,,
183.26,0.00156,-131.6,,,,,,,
183.3,0.00151,-131.6,,,,,,,
183.3,0.00151,-131.6,,,,,,,
183.35,0.00146,-131.8,,,,,,,
183.41,0.00141,-132.0,,,,,,,
183.46,0.00136,-132.0,,,,,,,
183.52,0.00131,-132.4,,,,,,,
183.56,0.00125,-132.5,,,,,,,
183.61,0.0012,-132.9,,,,,,,
183.66,0.00115,-132.7,,,,,,,
183.72,0.0011,-132.9,,,,,,,
183.76,0.00105,-132.8,,,,,,,
183.8,0.001,-132.6,,,,,,,
183.82,0.001,-132.6,,,,,,,
183.87,0.00094,-132.7,,,,,,,
183.93,0.00089,-132.9,,,,,,,
183.97,0.00084,-133.0,,,,,,,
184.02,0.00079,-133.3,,,,,,,
184.07,0.00074,-133.7,,,,,,,
184.12,0.00069,-133.8,,,,,,,
184.17,0.00064,-134.0,,,,,,,
184.22,0.00059,-134.5,,,,,,,
184.27,0.00054,-134.8,,,,,,,
184.3,0.00051,-134.7,,,,,,,
184.32,0.00049,-134.8,,,,,,,
184.37,0.00044,-134.9,,,,,,,
184.42,0.00039,-135.0,,,,,,,
184.47,0.00034,-134.9,,,,,,,
184.53,0.00029,-134.9,,,,,,,
184.57,0.00024,-135.0,,,,,,,
184.63,0.00018,-135.1,,,,,,,
184.68,0.00013,-135.3,,,,,,,
184.73,8e-05,-135.8,,,,,,,
184.78,3e-05,-136.1,,,,,,,
184.8,1e-05,-136.2,,,,,,,
184.82,-2e-05,-136.5,,,,,,,
184.87,-7e-05,-136.6,,,,,,,
184.92,-0.00012,-136.6,,,,,,,
184.97,-0.00017,-136.6,,,,,,,
185.03,-0.00022,-136.3,,,,,,,
185.08,-0.00027,-135.9,,,,,,,
185.13,-0.00032,-136.0,,,,,,,
185.18,-0.00037,-136.0,,,,,,,
185.23,-0.00042,-135.9,,,,,,,
185.28,-0.00047,-136.0,,,,,,,
185.3,-0.00049,-136.0,,,,,,,
185.33,-0.00052,-136.2,,,,,,,
185.39,-0.00058,-136.1,,,,,,,
185.44,-0.00063,-136.4,,,,,,,
185.49,-0.00068,-136.9,,,,,,,
185.53,-0.00073,-137.1,,,,,,,
185.58,-0.00078,-137.5,,,,,,,
185.63,-0.00083,-137.6,,,,,,,
185.68,-0.00088,-137.6,,,,,,,
185.73,-0.00093,-137.8,,,,,,,
185.78,-0.00098,-137.7,,,,,,,
185.8,-0.001,-137.5,,,,,,,
185.83,-0.00103,-137.6,,,,,,,
185.88,-0.00108,-137.5,,,,,,,
185.93,-0.00113,-137.2,,,,,,,
185.99,-0.00118,-137.1,,,,,,,
186.04,-0.00123,-136.9,,,,,,,
186.09,-0.00128,-136.9,,,,,,,
186.14,-0.00133,-137.0,,,,,,,
186.19,-0.00138,-137.2,,,,,,,
186.24,-0.00143,-137.6,,,,,,,
186.29,-0.00148,-137.8,,,,,,,
186.3,-0.0015,-137.7,,,,,,,
186.34,-0.00153,-138.0,,,,,,,
186.39,-0.00159,-138.2,,,,,,,
186.44,-0.00164,-138.1,,,,,,,
186.49,-0.00169,-138.3,,,,,,,
186.54,-0.00174,-138.2,,,,,,,
186.59,-0.00179,-138.2,,,,,,,
186.64,-0.00184,-138.3,,,,,,,
186.69,-0.00189,-138.3,,,,,,,
186.74,-0.00194,-138.3,,,,,,,
186.79,-0.00199,-138.3,,,,,,,
186.8,-0.002,-138.2,,,,,,,
186.84,-0.00204,-138.4,,,,,,,
186.89,-0.00209,-138.3,,,,,,,
186.94,-0.00214,-138.5,,,,,,,
187.0,-0.00219,-138.7,,,,,,,
187.05,-0.00224,-139.0,,,,,,,
187.1,-0.00229,-139.1,,,,,,,
187.14,-0.00235,-139.3,,,,,,,
187.2,-0.0024,-139.6,,,,,,,
187.25,-0.00245,-139.8,,,,,,,
187.29,-0.0025,-140.0,,,,,,,
187.3,-0.00251,-139.9,,,,,,,
187.34,-0.00255,-139.9,,,,,,,
187.39,-0.0026,-139.9,,,,,,,
187.44,-0.00265,-139.6,,,,,,,
187.49,-0.0027,-139.5,,,,,,,
187.54,-0.00275,-139.3,,,,,,,
187.6,-0.0028,-139.3,,,,,,,
187.65,-0.00285,-139.6,,,,,,,
187.7,-0.0029,-139.5,,,,,,,
187.75,-0.00295,-140.0,,,,,,,
187.8,-0.003,-140.3,,,,,,,
187.85,-0.00305,-140.6,,,,,,,
187.9,-0.0031,-141.0,,,,,,,
187.95,-0.00315,-141.5,,,,,,,
188.0,-0.0032,-141.6,,,,,,,
188.05,-0.00326,-141.7,,,,,,,
188.1,-0.00331,-141.5,,,,,,,
188.16,-0.00336,-141.3,,,,,,,
188.21,-0.00341,-141.4,,,,,,,
188.26,-0.00346,-141.4,,,,,,,
188.3,-0.00351,-141.3,,,,,,,
188.36,-0.00356,-141.4,,,,,,,
188.41,-0.00361,-141.6,,,,,,,
188.46,-0.00366,-141.8,,,,,,,
188.5,-0.00371,-141.9,,,,,,,
188.55,-0.00376,-141.9,,,,,,,
188.61,-0.00381,-141.7,,,,,,,
188.66,-0.00386,-141.5,,,,,,,
188.71,-0.00391,-141.4,,,,,,,
188.76,-0.00396,-141.3,,,,,,,
188.8,-0.00401,-141.3,,,,,,,
188.81,-0.00401,-141.2,,,,,,,
188.86,-0.00406,-141.4,,,,,,,
188.91,-0.00411,-141.4,,,,,,,
188.96,-0.00417,-141.5,,,,,,,
189.01,-0.00422,-141.6,,,,,,,
189.06,-0.00427,-141.7,,,,,,,
189.11,-0.00432,-141.8,,,,,,,
189.16,-0.00437,-141.8,,,,,,,
189.21,-0.00442,-141.6,,,,,,,
189.26,-0.00447,-141.5,,,,,,,
189.3,-0.00451,-141.6,,,,,,,
189.32,-0.00452,-141.6,,,,,,,
189.36,-0.00457,-141.8,,,,,,,
189.42,-0.00463,-142.0,,,,,,,
189.48,-0.00468,-142.3,,,,,,,
189.52,-0.00473,-142.7,,,,,,,
189.57,-0.00478,-143.0,,,,,,,
189.62,-0.00483,-142.9,,,,,,,
189.68,-0.00488,-143.1,,,,,,,
189.72,-0.00493,-143.2,,,,,,,
189.78,-0.00498,-143.3,,,,,,,
189.8,-0.00501,-142.7,,,,,,,
189.83,-0.00503,-141.0,,,,,,,
189.93,-0.00498,-123.6,,,,,,,
189.97,-0.00493,-113.2,,,,,,,
190.0,-0.00488,-103.0,,,,,,,
190.03,-0.00482,-96.57,,,,,,,
190.07,-0.00477,-88.44,,,,,,,
190.11,-0.00472,-80.83,,,,,,,
190.15,-0.00467,-74.21,,,,,,,
190.21,-0.00462,-66.91,,,,,,,
190.27,-0.00457,-60.15,,,,,,,
190.3,-0.00454,-55.54,,,,,,,
190.31,-0.00452,-54.49,,,,,,,
190.37,-0.00447,-48.39,,,,,,,
190.43,-0.00442,-40.84,,,,,,,
190.48,-0.00437,-35.1,,,,,,,
190.53,-0.00432,-29.06,,,,,,,
190.59,-0.00427,-22.82,,,,,,,
190.64,-0.00422,-16.93,,,,,,,
190.7,-0.00417,-11.22,,,,,,,
190.75,-0.00411,-5.61,,,,,,,
190.8,-0.00406,0.21,,,,,,,
190.8,-0.00406,0.12,,,,,,,
190.85,-0.00401,5.41,,,,,,,
190.9,-0.00396,10.44,,,,,,,
190.96,-0.00391,16.2,,,,,,,
191.01,-0.00386,21.34,,,,,,,
191.07,-0.00381,26.42,,,,,,,
191.13,-0.00376,30.82,,,,,,,
191.23,-0.00371,34.67,,,,,,,
191.3,-0.00367,37.66,,,,,,,
191.32,-0.00366,39.11,,,,,,,
191.37,-0.00361,45.09,,,,,,,
191.4,-0.00356,50.71,,,,,,,
191.44,-0.00351,56.48,,,,,,,
191.48,-0.00346,61.27,,,,,,,
191.52,-0.0034,65.0,,,,,,,
191.58,-0.00335,68.78,,,,,,,
191.65,-0.0033,72.22,,,,,,,
191.7,-0.00325,75.49,,,,,,,
191.76,-0.0032,78.93,,,,,,,
191.8,-0.00316,81.45,,,,,,,
191.82,-0.00315,82.38,,,,,,,
191.87,-0.0031,86.1,,,,,,,
191.92,-0.00305,90.08,,,,,,,
191.96,-0.003,93.98,,,,,,,
192.0,-0.00295,98.91,,,,,,,
192.03,-0.0029,103.07,,,,,,,
192.06,-0.00285,106.83,,,,,,,
192.1,-0.00279,110.25,,,,,,,
192.13,-0.00274,113.56,,,,,,,
192.17,-0.00269,116.39,,,,,,,
192.21,-0.00264,118.88,,,,,,,
192.26,-0.00259,120.65,,,,,,,
192.3,-0.00254,122.38,,,,,,,
192.3,-0.00254,122.26,,,,,,,
192.35,-0.00249,123.61,,,,,,,
192.4,-0.00244,124.58,,,,,,,
192.45,-0.00239,125.7,,,,,,,
192.5,-0.00234,126.58,,,,,,,
192.55,-0.00229,127.64,,,,,,,
192.6,-0.00224,128.38,,,,,,,
192.64,-0.00219,128.93,,,,,,,
192.69,-0.00213,129.43,,,,,,,
192.74,-0.00208,129.71,,,,,,,
192.79,-0.00203,129.93,,,,,,,
192.8,-0.00202,130.05,,,,,,,
192.84,-0.00198,130.27,,,,,,,
192.89,-0.00193,130.51,,,,,,,
192.94,-0.00188,130.48,,,,,,,
192.99,-0.00183,130.8,,,,,,,
193.04,-0.00178,130.91,,,,,,,
193.09,-0.00173,131.22,,,,,,,
193.14,-0.00168,131.08,,,,,,,
193.19,-0.00163,131.2,,,,,,,
193.24,-0.00158,131.31,,,,,,,
193.29,-0.00153,131.1,,,,,,,
193.3,-0.00151,131.06,,,,,,,
193.34,-0.00148,131.04,,,,,,,
193.39,-0.00143,130.88,,,,,,,
193.44,-0.00138,130.73,,,,,,,
193.49,-0.00133,130.84,,,,,,,
193.54,-0.00128,130.87,,,,,,,
193.59,-0.00123,130.86,,,,,,,
193.64,-0.00117,130.88,,,,,,,
193.69,-0.00112,130.85,,,,,,,
193.74,-0.00107,130.78,,,,,,,
193.79,-0.00102,130.72,,,,,,,
193.8,-0.00101,130.62,,,,,,,
193.84,-0.00097,130.61,,,,,,,
193.89,-0.00092,130.57,,,,,,,
193.94,-0.00087,130.6,,,,,,,
193.99,-0.00082,130.75,,,,,,,
194.04,-0.00077,131.04,,,,,,,
194.09,-0.00072,131.21,,,,,,,
194.15,-0.00067,131.25,,,,,,,
194.2,-0.00062,131.27,,,,,,,
194.25,-0.00057,131.44,,,,,,,
194.3,-0.00052,131.43,,,,,,,
194.3,-0.00051,131.48,,,,,,,
194.35,-0.00047,131.8,,,,,,,
194.4,-0.00042,131.99,,,,,,,
194.44,-0.00037,132.18,,,,,,,
194.5,-0.00031,132.23,,,,,,,
194.55,-0.00026,132.32,,,,,,,
194.6,-0.00021,132.35,,,,,,,
194.65,-0.00016,132.32,,,,,,,
194.7,-0.00011,132.08,,,,,,,
374.86,-3e-05,132.36,,,,,,,
374.91,2e-05,132.05,,,,,,,
374.97,7e-05,131.65,,,,,,,
375.01,0.00012,131.62,,,,,,,
375.06,0.00017,131.11,,,,,,,
375.12,0.00022,131.04,,,,,,,
375.17,0.00028,131.01,,,,,,,
375.22,0.00033,131.05,,,,,,,
375.27,0.00038,131.27,,,,,,,
375.3,0.00041,131.54,,,,,,,
375.32,0.00043,131.67,,,,,,,
375.38,0.00048,132.16,,,,,,,
375.42,0.00053,132.45,,,,,,,
375.48,0.00058,132.95,,,,,,,
375.52,0.00063,133.21,,,,,,,
375.57,0.00068,133.25,,,,,,,
375.62,0.00073,133.41,,,,,,,
375.67,0.00078,133.51,,,,,,,
375.72,0.00083,133.2,,,,,,,
375.77,0.00088,133.24,,,,,,,
375.8,0.00092,133.02,,,,,,,
375.82,0.00094,133.08,,,,,,,
375.87,0.00099,132.56,,,,,,,
375.92,0.00104,132.23,,,,,,,
375.98,0.00109,132.32,,,,,,,
376.03,0.00114,132.44,,,,,,,
376.08,0.00119,133.01,,,,,,,
376.13,0.00124,133.23,,,,,,,
376.18,0.00129,133.51,,,,,,,
376.23,0.00134,133.72,,,,,,,
376.28,0.00139,133.93,,,,,,,
376.3,0.00142,133.78,,,,,,,
376.33,0.00144,133.6,,,,,,,
376.38,0.00149,133.78,,,,,,,
376.42,0.00154,133.78,,,,,,,
376.48,0.00159,133.81,,,,,,,
376.53,0.00164,133.74,,,,,,,
376.58,0.00169,133.81,,,,,,,
376.64,0.00174,133.83,,,,,,,
376.68,0.00179,133.89,,,,,,,
376.73,0.00184,134.11,,,,,,,
376.78,0.00189,134.39,,,,,,,
376.8,0.00192,134.48,,,,,,,
376.82,0.00194,134.35,,,,,,,
376.87,0.00199,134.15,,,,,,,
376.93,0.00205,134.0,,,,,,,
376.98,0.0021,133.89,,,,,,,
377.04,0.00215,133.72,,,,,,,
377.09,0.0022,133.54,,,,,,,
377.14,0.00225,133.83,,,,,,,
377.19,0.0023,134.18,,,,,,,
377.24,0.00235,134.47,,,,,,,
377.28,0.0024,134.82,,,,,,,
377.3,0.00242,134.89,,,,,,,
377.33,0.00245,134.92,,,,,,,
377.38,0.0025,135.03,,,,,,,
377.43,0.00255,135.08,,,,,,,
377.48,0.0026,134.78,,,,,,,
377.53,0.00265,134.59,,,,,,,
377.58,0.0027,134.42,,,,,,,
377.63,0.00275,134.16,,,,,,,
377.69,0.0028,133.94,,,,,,,
377.74,0.00285,134.05,,,,,,,
377.79,0.0029,134.41,,,,,,,
377.8,0.00292,134.73,,,,,,,
377.84,0.00295,134.79,,,,,,,
377.89,0.00301,134.83,,,,,,,
377.94,0.00306,135.2,,,,,,,
377.99,0.00311,135.27,,,,,,,
378.04,0.00316,135.48,,,,,,,
378.09,0.00321,135.5,,,,,,,
378.14,0.00326,135.73,,,,,,,
378.19,0.00331,135.98,,,,,,,
378.24,0.00336,136.14,,,,,,,
378.29,0.00341,136.18,,,,,,,
378.3,0.00342,136.27,,,,,,,
378.34,0.00346,136.03,,,,,,,
378.39,0.00351,136.3,,,,,,,
378.44,0.00356,136.11,,,,,,,
378.49,0.00361,136.05,,,,,,,
378.54,0.00366,135.89,,,,,,,
378.59,0.00371,136.08,,,,,,,
378.65,0.00376,136.11,,,,,,,
378.7,0.00381,136.06,,,,,,,
378.75,0.00386,136.42,,,,,,,
378.8,0.00391,136.8,,,,,,,
378.8,0.00392,137.03,,,,,,,
378.85,0.00396,137.41,,,,,,,
378.89,0.00401,137.67,,,,,,,
378.94,0.00406,137.76,,,,,,,
378.99,0.00411,137.72,,,,,,,
379.04,0.00416,137.27,,,,,,,
379.09,0.00422,137.05,,,,,,,
379.14,0.00427,136.86,,,,,,,
379.19,0.00432,136.54,,,,,,,
379.24,0.00437,136.27,,,,,,,
379.29,0.00442,136.24,,,,,,,
379.3,0.00443,136.25,,,,,,,
379.34,0.00447,136.1,,,,,,,
379.4,0.00452,136.07,,,,,,,
379.45,0.00457,136.27,,,,,,,
379.5,0.00462,136.62,,,,,,,
379.55,0.00467,136.75,,,,,,,
379.59,0.00472,136.9,,,,,,,
379.65,0.00477,136.89,,,,,,,
379.7,0.00482,136.75,,,,,,,
379.75,0.00487,136.58,,,,,,,
379.8,0.00492,136.24,,,,,,,
379.8,0.00493,136.43,,,,,,,
379.85,0.00497,136.09,,,,,,,
379.91,0.00502,134.47,,,,,,,
380.02,0.00497,114.99,,,,,,,
380.06,0.00492,105.51,,,,,,,
380.09,0.00487,97.54,,,,,,,
380.13,0.00482,90.39,,,,,,,
380.16,0.00477,83.64,,,,,,,
380.2,0.00472,76.08,,,,,,,
380.25,0.00467,69.68,,,,,,,
380.3,0.00462,63.52,,,,,,,
380.3,0.00462,63.08,,,,,,,
380.36,0.00457,56.97,,,,,,,
380.41,0.00452,50.81,,,,,,,
380.47,0.00447,44.72,,,,,,,
380.51,0.00442,39.59,,,,,,,
380.57,0.00437,33.61,,,,,,,
380.62,0.00432,28.01,,,,,,,
380.67,0.00427,22.87,,,,,,,
380.73,0.00422,17.17,,,,,,,
380.78,0.00416,12.49,,,,,,,
380.8,0.00414,9.85,,,,,,,
380.83,0.00411,7.14,,,,,,,
380.89,0.00406,2.24,,,,,,,
380.94,0.00401,-2.87,,,,,,,
381.0,0.00396,-7.76,,,,,,,
381.08,0.00391,-11.06,,,,,,,
381.21,0.00386,-15.8,,,,,,,
381.29,0.00381,-20.76,,,,,,,
381.3,0.0038,-22.28,,,,,,,
381.34,0.00376,-25.92,,,,,,,
381.4,0.00371,-32.25,,,,,,,
381.43,0.00366,-37.42,,,,,,,
381.46,0.0036,-43.07,,,,,,,
381.5,0.00355,-48.22,,,,,,,
381.54,0.0035,-52.3,,,,,,,
381.6,0.00345,-56.64,,,,,,,
381.64,0.0034,-60.82,,,,,,,
381.68,0.00335,-65.34,,,,,,,
381.72,0.0033,-70.27,,,,,,,
381.75,0.00325,-75.19,,,,,,,
381.78,0.0032,-79.53,,,,,,,
381.8,0.00318,-81.68,,,,,,,
381.82,0.00315,-83.84,,,,,,,
381.86,0.0031,-87.27,,,,,,,
381.9,0.00305,-91.04,,,,,,,
381.94,0.003,-94.05,,,,,,,
381.98,0.00295,-96.6,,,,,,,
382.03,0.0029,-99.04,,,,,,,
382.08,0.00285,-101.5,,,,,,,
382.13,0.0028,-103.9,,,,,,,
382.18,0.00275,-106.1,,,,,,,
382.24,0.0027,-108.7,,,,,,,
382.28,0.00264,-111.1,,,,,,,
382.3,0.00263,-112.0,,,,,,,
382.34,0.00259,-113.7,,,,,,,
382.38,0.00254,-115.9,,,,,,,
382.43,0.00249,-117.9,,,,,,,
382.48,0.00244,-119.8,,,,,,,
382.53,0.00239,-121.5,,,,,,,
382.58,0.00234,-123.1,,,,,,,
382.62,0.00229,-124.4,,,,,,,
382.67,0.00224,-125.4,,,,,,,
382.72,0.00219,-126.2,,,,,,,
382.76,0.00214,-126.8,,,,,,,
382.8,0.0021,-127.0,,,,,,,
382.81,0.00209,-127.1,,,,,,,
382.86,0.00204,-127.3,,,,,,,
382.92,0.00198,-127.5,,,,,,,
382.98,0.00193,-128.2,,,,,,,
383.03,0.00188,-128.5,,,,,,,
383.08,0.00183,-129.0,,,,,,,
383.12,0.00178,-129.3,,,,,,,
383.17,0.00173,-129.8,,,,,,,
383.22,0.00168,-130.1,,,,,,,
383.27,0.00163,-130.5,,,,,,,
383.3,0.0016,-130.7,,,,,,,
383.32,0.00158,-130.6,,,,,,,
383.37,0.00153,-130.6,,,,,,,
383.43,0.00148,-130.5,,,,,,,
383.48,0.00142,-130.8,,,,,,,
383.53,0.00137,-130.8,,,,,,,
383.58,0.00132,-130.9,,,,,,,
383.63,0.00127,-131.2,,,,,,,
383.68,0.00122,-131.4,,,,,,,
383.73,0.00117,-131.8,,,,,,,
383.78,0.00112,-131.8,,,,,,,
383.8,0.0011,-131.9,,,,,,,
383.83,0.00107,-132.0,,,,,,,
383.88,0.00102,-132.1,,,,,,,
383.93,0.00097,-132.2,,,,,,,
383.98,0.00092,-132.2,,,,,,,
384.03,0.00087,-132.0,,,,,,,
384.09,0.00082,-131.9,,,,,,,
384.14,0.00077,-132.3,,,,,,,
384.19,0.00071,-132.7,,,,,,,
384.24,0.00066,-133.1,,,,,,,
384.29,0.00061,-133.7,,,,,,,
384.3,0.0006,-133.9,,,,,,,
384.34,0.00056,-134.2,,,,,,,
384.39,0.00051,-134.6,,,,,,,
384.44,0.00046,-134.7,,,,,,,
384.49,0.00041,-135.0,,,,,,,
384.53,0.00036,-135.0,,,,,,,
384.58,0.00031,-135.1,,,,,,,
384.63,0.00026,-135.0,,,,,,,
384.68,0.00021,-134.6,,,,,,,
384.73,0.00016,-134.6,,,,,,,
384.79,0.00011,-134.4,,,,,,,
384.8,0.0001,-134.4,,,,,,,
384.84,6e-05,-134.3,,,,,,,
384.89,1e-05,-134.4,,,,,,,
384.94,-4e-05,-134.7,,,,,,,
384.99,-9e-05,-134.9,,,,,,,
385.04,-0.00014,-135.1,,,,,,,
385.09,-0.00019,-135.2,,,,,,,
385.13,-0.00024,-135.1,,,,,,,
385.18,-0.00029,-135.2,,,,,,,
385.23,-0.00034,-135.1,,,,,,,
385.29,-0.00039,-135.0,,,,,,,
385.3,-0.00041,-135.3,,,,,,,
385.34,-0.00044,-135.1,,,,,,,
385.39,-0.00049,-135.2,,,,,,,
385.44,-0.00054,-135.2,,,,,,,
385.49,-0.00059,-135.2,,,,,,,
385.54,-0.00065,-135.5,,,,,,,
385.58,-0.0007,-135.4,,,,,,,
385.64,-0.00075,-135.2,,,,,,,
385.69,-0.0008,-135.1,,,,,,,
385.74,-0.00085,-135.0,,,,,,,
385.8,-0.0009,-135.3,,,,,,,
385.8,-0.00091,-135.4,,,,,,,
385.85,-0.00095,-135.5,,,,,,,
385.9,-0.001,-135.9,,,,,,,
385.95,-0.00105,-136.4,,,,,,,
386.0,-0.0011,-136.8,,,,,,,
386.04,-0.00115,-137.1,,,,,,,
386.1,-0.0012,-137.4,,,,,,,
386.15,-0.00125,-137.3,,,,,,,
386.2,-0.00131,-137.3,,,,,,,
386.25,-0.00136,-137.3,,,,,,,
386.3,-0.0014,-137.5,,,,,,,
386.3,-0.00141,-137.4,,,,,,,
386.36,-0.00146,-137.5,,,,,,,
386.4,-0.00151,-137.9,,,,,,,
386.45,-0.00156,-138.1,,,,,,,
386.5,-0.00161,-138.3,,,,,,,
386.55,-0.00166,-137.9,,,,,,,
386.59,-0.00171,-138.0,,,,,,,
386.64,-0.00176,-138.1,,,,,,,
386.7,-0.00181,-138.0,,,,,,,
386.74,-0.00186,-138.0,,,,,,,
386.8,-0.00191,-137.7,,,,,,,
386.8,-0.00191,-137.8,,,,,,,
386.85,-0.00196,-137.6,,,,,,,
386.91,-0.00201,-137.5,,,,,,,
386.96,-0.00206,-137.7,,,,,,,
387.0,-0.00211,-137.9,,,,,,,
387.06,-0.00216,-137.9,,,,,,,
387.1,-0.00221,-138.0,,,,,,,
387.16,-0.00227,-138.1,,,,,,,
387.2,-0.00232,-138.2,,,,,,,
387.25,-0.00237,-138.5,,,,,,,
387.3,-0.00241,-138.6,,,,,,,
387.31,-0.00242,-138.4,,,,,,,
387.36,-0.00247,-138.7,,,,,,,
387.41,-0.00252,-139.0,,,,,,,
387.46,-0.00257,-139.2,,,,,,,
387.51,-0.00262,-139.2,,,,,,,
387.55,-0.00267,-139.4,,,,,,,
387.61,-0.00272,-139.1,,,,,,,
387.66,-0.00277,-138.9,,,,,,,
387.71,-0.00282,-139.1,,,,,,,
387.76,-0.00287,-139.5,,,,,,,
387.8,-0.00291,-139.8,,,,,,,
387.81,-0.00292,-139.8,,,,,,,
387.87,-0.00297,-139.9,,,,,,,
387.91,-0.00303,-140.4,,,,,,,
387.96,-0.00308,-140.6,,,,,,,
388.01,-0.00313,-140.9,,,,,,,
388.06,-0.00318,-140.9,,,,,,,
388.11,-0.00323,-140.8,,,,,,,
388.16,-0.00328,-140.8,,,,,,,
388.21,-0.00333,-140.9,,,,,,,
388.27,-0.00338,-140.7,,,,,,,
388.3,-0.00342,-140.8,,,,,,,
388.31,-0.00343,-140.7,,,,,,,
388.36,-0.00348,-140.8,,,,,,,
388.41,-0.00353,-140.8,,,,,,,
388.47,-0.00358,-140.8,,,,,,,
388.52,-0.00363,-140.7,,,,,,,
388.58,-0.00368,-141.1,,,,,,,
388.63,-0.00373,-141.5,,,,,,,
388.68,-0.00378,-142.0,,,,,,,
388.72,-0.00384,-142.6,,,,,,,
388.77,-0.00389,-143.1,,,,,,,
388.8,-0.00393,-143.3,,,,,,,
388.82,-0.00394,-143.0,,,,,,,
388.86,-0.00399,-142.9,,,,,,,
388.92,-0.00404,-142.6,,,,,,,
388.96,-0.00409,-142.5,,,,,,,
389.02,-0.00414,-142.1,,,,,,,
389.07,-0.00419,-141.8,,,,,,,
389.12,-0.00424,-141.4,,,,,,,
389.17,-0.00429,-141.1,,,,,,,
389.22,-0.00434,-140.9,,,,,,,
389.27,-0.00439,-141.1,,,,,,,
389.3,-0.00442,-141.2,,,,,,,
389.32,-0.00444,-141.1,,,,,,,
389.37,-0.00449,-140.9,,,,,,,
389.42,-0.00454,-140.8,,,,,,,
389.48,-0.00459,-141.1,,,,,,,
389.53,-0.00465,-141.1,,,,,,,
389.57,-0.0047,-141.0,,,,,,,
389.63,-0.00475,-140.9,,,,,,,
389.68,-0.0048,-141.0,,,,,,,
389.73,-0.00485,-140.8,,,,,,,
389.78,-0.0049,-141.0,,,,,,,
389.8,-0.00492,-141.1,,,,,,,
389.83,-0.00495,-141.2,,,,,,,
389.89,-0.005,-140.8,,,,,,,
390.04,-0.00495,-116.5,,,,,,,
390.08,-0.0049,-106.5,,,,,,,
390.11,-0.00485,-98.87,,,,,,,
390.14,-0.0048,-91.88,,,,,,,
390.18,-0.00475,-83.73,,,,,,,
390.22,-0.0047,-77.01,,,,,,,
390.27,-0.00464,-70.44,,,,,,,
390.3,-0.00461,-66.13,,,,,,,
390.32,-0.00459,-63.57,,,,,,,
390.38,-0.00454,-57.0,,,,,,,
390.43,-0.00449,-50.44,,,,,,,
390.49,-0.00444,-44.2,,,,,,,
390.55,-0.00439,-37.15,,,,,,,
390.6,-0.00434,-30.56,,,,,,,
390.65,-0.00429,-24.98,,,,,,,
390.7,-0.00424,-19.31,,,,,,,
390.75,-0.00419,-14.06,,,,,,,
390.8,-0.00414,-8.59,,,,,,,
390.81,-0.00414,-8.14,,,,,,,
390.86,-0.00409,-2.88,,,,,,,
390.91,-0.00404,2.74,,,,,,,
390.97,-0.00399,7.56,,,,,,,
391.02,-0.00393,13.22,,,,,,,
391.08,-0.00388,18.25,,,,,,,
391.13,-0.00383,23.24,,,,,,,
391.19,-0.00378,28.14,,,,,,,
391.26,-0.00373,31.52,,,,,,,
391.3,-0.00371,33.14,,,,,,,
391.35,-0.00368,34.78,,,,,,,
391.44,-0.00363,39.38,,,,,,,
391.48,-0.00358,46.03,,,,,,,
391.51,-0.00353,51.14,,,,,,,
391.55,-0.00348,56.67,,,,,,,
391.59,-0.00343,61.01,,,,,,,
391.64,-0.00338,65.23,,,,,,,
391.7,-0.00333,69.19,,,,,,,
391.76,-0.00328,72.26,,,,,,,
391.8,-0.00325,74.85,,,,,,,
391.83,-0.00323,76.34,,,,,,,
391.89,-0.00318,80.04,,,,,,,
391.95,-0.00312,84.52,,,,,,,
392.0,-0.00307,88.36,,,,,,,
392.04,-0.00302,92.88,,,,,,,
392.08,-0.00297,97.55,,,,,,,
392.11,-0.00292,102.3,,,,,,,
392.15,-0.00287,106.03,,,,,,,
392.18,-0.00282,110.13,,,,,,,
392.22,-0.00277,113.76,,,,,,,
392.25,-0.00272,116.5,,,,,,,
392.29,-0.00267,119.37,,,,,,,
392.3,-0.00265,120.04,,,,,,,
392.33,-0.00262,121.26,,,,,,,
392.37,-0.00257,122.99,,,,,,,
392.42,-0.00252,124.57,,,,,,,
392.46,-0.00246,125.82,,,,,,,
392.51,-0.00241,126.76,,,,,,,
392.55,-0.00236,127.18,,,,,,,
392.6,-0.00231,127.72,,,,,,,
392.65,-0.00226,127.94,,,,,,,
392.7,-0.00221,128.21,,,,,,,
392.75,-0.00216,128.46,,,,,,,
392.8,-0.00211,128.65,,,,,,,
392.8,-0.00211,128.67,,,,,,,
392.85,-0.00206,128.84,,,,,,,
392.9,-0.00201,129.09,,,,,,,
392.96,-0.00196,129.55,,,,,,,
393.01,-0.00191,129.85,,,,,,,
393.05,-0.00186,130.0,,,,,,,
393.11,-0.00181,130.37,,,,,,,
393.15,-0.00176,130.56,,,,,,,
393.21,-0.00171,130.73,,,,,,,
393.26,-0.00165,130.85,,,,,,,
393.3,-0.0016,131.07,,,,,,,
393.3,-0.0016,131.03,,,,,,,
393.35,-0.00155,131.1,,,,,,,
393.4,-0.0015,130.97,,,,,,,
393.45,-0.00145,131.1,,,,,,,
393.5,-0.0014,130.9,,,,,,,
393.55,-0.00135,130.85,,,,,,,
393.6,-0.0013,130.6,,,,,,,
393.65,-0.00125,130.57,,,,,,,
393.71,-0.0012,130.69,,,,,,,
393.76,-0.00115,131.11,,,,,,,
393.8,-0.00111,131.4,,,,,,,
393.81,-0.0011,131.41,,,,,,,
393.86,-0.00105,131.81,,,,,,,
393.91,-0.001,132.14,,,,,,,
393.95,-0.00095,132.14,,,,,,,
394.0,-0.0009,132.25,,,,,,,
394.05,-0.00085,132.06,,,,,,,
394.1,-0.0008,132.1,,,,,,,
394.15,-0.00075,131.9,,,,,,,
394.2,-0.0007,131.46,,,,,,,
394.25,-0.00064,131.19,,,,,,,
394.3,-0.00059,130.8,,,,,,,
394.3,-0.00059,130.87,,,,,,,
394.36,-0.00054,130.71,,,,,,,
394.41,-0.00049,130.56,,,,,,,
394.46,-0.00044,130.47,,,,,,,
394.51,-0.00039,130.72,,,,,,,
394.56,-0.00034,131.11,,,,,,,
394.61,-0.00029,131.37,,,,,,,
394.66,-0.00024,131.61,,,,,,,
394.72,-0.00019,131.88,,,,,,,
394.76,-0.00014,132.04,,,,,,,
394.8,-9e-05,132.28,,,,,,,
394.81,-9e-05,132.27,,,,,,,
975.13,-2e-05,131.98,,,,,,,
975.18,3e-05,131.94,,,,,,,
975.23,8e-05,131.93,,,,,,,
975.29,0.00013,131.78,,,,,,,
975.3,0.00015,131.73,,,,,,,
975.34,0.00018,131.74,,,,,,,
975.39,0.00023,131.89,,,,,,,
975.44,0.00028,132.14,,,,,,,
975.5,0.00033,132.27,,,,,,,
975.54,0.00038,132.5,,,,,,,
975.59,0.00044,132.83,,,,,,,
975.64,0.00049,132.83,,,,,,,
975.69,0.00054,132.81,,,,,,,
975.74,0.00059,133.07,,,,,,,
975.79,0.00064,133.0,,,,,,,
975.8,0.00065,132.88,,,,,,,
975.84,0.00069,133.02,,,,,,,
975.89,0.00074,133.11,,,,,,,
975.94,0.00079,133.07,,,,,,,
976.0,0.00084,133.23,,,,,,,
976.04,0.00089,133.47,,,,,,,
976.09,0.00094,133.58,,,,,,,
976.14,0.00099,133.83,,,,,,,
976.19,0.00104,133.71,,,,,,,
976.24,0.00109,133.42,,,,,,,
976.3,0.00114,133.28,,,,,,,
976.3,0.00116,133.24,,,,,,,
976.34,0.00119,133.21,,,,,,,
976.4,0.00124,132.9,,,,,,,
976.45,0.0013,133.05,,,,,,,
976.5,0.00135,132.89,,,,,,,
976.55,0.0014,132.61,,,,,,,
976.6,0.00145,132.79,,,,,,,
976.65,0.0015,132.83,,,,,,,
976.7,0.00155,132.93,,,,,,,
976.75,0.0016,133.33,,,,,,,
976.8,0.00165,133.25,,,,,,,
976.85,0.0017,133.32,,,,,,,
976.9,0.00175,133.55,,,,,,,
976.95,0.0018,133.83,,,,,,,
977.0,0.00185,133.88,,,,,,,
977.05,0.0019,133.94,,,,,,,
977.11,0.00195,134.13,,,,,,,
977.15,0.00201,134.37,,,,,,,
977.21,0.00206,134.72,,,,,,,
977.26,0.00211,135.15,,,,,,,
977.3,0.00215,135.39,,,,,,,
977.31,0.00216,135.42,,,,,,,
977.36,0.00221,135.86,,,,,,,
977.4,0.00226,135.82,,,,,,,
977.45,0.00231,135.92,,,,,,,
977.5,0.00236,135.92,,,,,,,
977.55,0.00241,135.87,,,,,,,
977.6,0.00246,135.82,,,,,,,
977.65,0.00251,135.7,,,,,,,
977.71,0.00256,135.61,,,,,,,
977.76,0.00261,135.18,,,,,,,
977.8,0.00266,135.15,,,,,,,
977.81,0.00266,135.32,,,,,,,
977.85,0.00271,135.0,,,,,,,
977.9,0.00276,134.81,,,,,,,
977.95,0.00281,134.37,,,,,,,
978.01,0.00286,134.07,,,,,,,
978.06,0.00291,133.96,,,,,,,
978.11,0.00297,133.69,,,,,,,
978.17,0.00302,133.85,,,,,,,
978.22,0.00307,134.2,,,,,,,
978.27,0.00312,134.9,,,,,,,
978.3,0.00315,135.46,,,,,,,
978.32,0.00317,135.61,,,,,,,
978.37,0.00322,136.02,,,,,,,
978.42,0.00327,136.36,,,,,,,
978.46,0.00332,136.63,,,,,,,
978.52,0.00337,136.69,,,,,,,
978.57,0.00342,136.5,,,,,,,
978.62,0.00347,136.53,,,,,,,
978.67,0.00352,136.6,,,,,,,
978.71,0.00357,136.72,,,,,,,
978.76,0.00362,136.36,,,,,,,
978.8,0.00366,136.09,,,,,,,
978.82,0.00367,136.11,,,,,,,
978.87,0.00373,136.09,,,,,,,
978.92,0.00378,136.18,,,,,,,
978.97,0.00383,136.51,,,,,,,
979.02,0.00388,136.73,,,,,,,
979.07,0.00393,136.79,,,,,,,
979.12,0.00398,136.93,,,,,,,
979.17,0.00403,136.96,,,,,,,
979.22,0.00408,137.09,,,,,,,
979.27,0.00413,137.12,,,,,,,
979.3,0.00416,137.07,,,,,,,
979.32,0.00418,136.94,,,,,,,
979.37,0.00423,137.07,,,,,,,
979.43,0.00428,137.14,,,,,,,
979.47,0.00433,137.18,,,,,,,
979.52,0.00438,137.21,,,,,,,
979.57,0.00443,137.42,,,,,,,
979.62,0.00448,137.17,,,,,,,
979.67,0.00453,137.03,,,,,,,
979.72,0.00458,136.88,,,,,,,
979.77,0.00464,136.5,,,,,,,
979.8,0.00467,136.21,,,,,,,
979.83,0.00469,136.21,,,,,,,
979.87,0.00474,136.47,,,,,,,
979.92,0.00479,136.56,,,,,,,
979.97,0.00484,136.44,,,,,,,
980.02,0.00489,136.53,,,,,,,
980.07,0.00494,136.15,,,,,,,
980.13,0.00499,135.79,,,,,,,
980.3,0.00495,110.03,,,,,,,
980.32,0.00494,107.13,,,,,,,
980.35,0.00489,99.43,,,,,,,
980.38,0.00484,91.55,,,,,,,
980.42,0.00479,83.63,,,,,,,
980.46,0.00473,76.36,,,,,,,
980.5,0.00468,69.86,,,,,,,
980.55,0.00463,64.13,,,,,,,
980.61,0.00458,57.17,,,,,,,
980.66,0.00453,50.99,,,,,,,
980.72,0.00448,45.07,,,,,,,
980.77,0.00443,38.57,,,,,,,
980.8,0.0044,35.19,,,,,,,
980.83,0.00438,32.67,,,,,,,
980.88,0.00433,26.66,,,,,,,
980.93,0.00428,20.9,,,,,,,
980.98,0.00423,16.05,,,,,,,
981.04,0.00418,10.72,,,,,,,
981.09,0.00413,5.92,,,,,,,
981.14,0.00408,0.84,,,,,,,
981.19,0.00403,-3.89,,,,,,,
981.25,0.00398,-8.35,,,,,,,
981.3,0.00394,-10.52,,,,,,,
981.35,0.00393,-10.76,,,,,,,
981.45,0.00388,-14.96,,,,,,,
981.52,0.00383,-19.49,,,,,,,
981.59,0.00378,-25.0,,,,,,,
981.64,0.00373,-30.42,,,,,,,
981.67,0.00367,-36.56,,,,,,,
981.71,0.00362,-41.89,,,,,,,
981.74,0.00357,-46.63,,,,,,,
981.79,0.00352,-50.87,,,,,,,
981.8,0.0035,-52.14,,,,,,,
981.84,0.00347,-54.43,,,,,,,
981.89,0.00342,-58.31,,,,,,,
981.93,0.00337,-63.5,,,,,,,
981.97,0.00332,-68.32,,,,,,,
982.0,0.00327,-73.33,,,,,,,
982.04,0.00322,-77.77,,,,,,,
982.07,0.00317,-81.66,,,,,,,
982.1,0.00312,-85.43,,,,,,,
982.15,0.00307,-89.28,,,,,,,
982.18,0.00302,-91.83,,,,,,,
982.23,0.00296,-94.99,,,,,,,
982.28,0.00291,-97.8,,,,,,,
982.3,0.00288,-98.99,,,,,,,
982.32,0.00286,-100.0,,,,,,,
982.37,0.00281,-102.1,,,,,,,
982.42,0.00276,-104.3,,,,,,,
982.47,0.00271,-106.1,,,,,,,
982.52,0.00266,-108.2,,,,,,,
982.57,0.00261,-109.9,,,,,,,
982.62,0.00256,-111.6,,,,,,,
982.68,0.00251,-113.6,,,,,,,
982.73,0.00246,-115.3,,,,,,,
982.78,0.00241,-117.2,,,,,,,
982.8,0.00239,-118.0,,,,,,,
982.83,0.00235,-118.8,,,,,,,
982.88,0.0023,-120.6,,,,,,,
982.92,0.00225,-121.9,,,,,,,
982.98,0.0022,-123.0,,,,,,,
983.02,0.00215,-123.7,,,,,,,
983.07,0.0021,-124.3,,,,,,,
983.12,0.00205,-124.9,,,,,,,
983.18,0.002,-125.5,,,,,,,
983.23,0.00194,-125.8,,,,,,,
983.28,0.00189,-126.4,,,,,,,
983.3,0.00187,-126.6,,,,,,,
983.33,0.00184,-126.9,,,,,,,
983.38,0.00179,-127.4,,,,,,,
983.43,0.00174,-128.2,,,,,,,
983.48,0.00169,-128.7,,,,,,,
983.53,0.00164,-129.1,,,,,,,
983.58,0.00159,-129.3,,,,,,,
983.63,0.00154,-129.7,,,,,,,
983.68,0.00149,-129.6,,,,,,,
983.73,0.00144,-129.8,,,,,,,
983.78,0.00139,-129.9,,,,,,,
983.8,0.00136,-130.0,,,,,,,
983.83,0.00134,-130.1,,,,,,,
983.88,0.00129,-130.4,,,,,,,
983.92,0.00124,-130.3,,,,,,,
983.98,0.00119,-130.2,,,,,,,
984.03,0.00113,-130.1,,,,,,,
984.08,0.00108,-130.0,,,,,,,
984.13,0.00103,-130.1,,,,,,,
984.19,0.00098,-130.2,,,,,,,
984.24,0.00093,-130.6,,,,,,,
984.29,0.00088,-131.1,,,,,,,
984.3,0.00087,-131.3,,,,,,,
984.34,0.00083,-131.8,,,,,,,
984.39,0.00078,-132.3,,,,,,,
984.44,0.00073,-132.5,,,,,,,
984.49,0.00068,-132.7,,,,,,,
984.53,0.00063,-133.1,,,,,,,
984.58,0.00058,-133.1,,,,,,,
984.63,0.00053,-133.0,,,,,,,
984.68,0.00048,-133.0,,,,,,,
984.74,0.00043,-132.8,,,,,,,
984.78,0.00038,-132.8,,,,,,,
984.8,0.00036,-132.6,,,,,,,
984.84,0.00033,-132.6,,,,,,,
984.89,0.00028,-132.5,,,,,,,
984.94,0.00023,-132.4,,,,,,,
984.99,0.00017,-132.5,,,,,,,
985.04,0.00012,-132.4,,,,,,,
985.09,7e-05,-132.5,,,,,,,
985.14,2e-05,-132.6,,,,,,,
985.19,-3e-05,-132.9,,,,,,,
985.24,-8e-05,-133.1,,,,,,,
985.29,-0.00013,-133.2,,,,,,,
985.3,-0.00014,-133.2,,,,,,,
985.34,-0.00018,-133.5,,,,,,,
985.39,-0.00023,-133.8,,,,,,,
985.44,-0.00028,-134.0,,,,,,,
985.49,-0.00033,-134.1,,,,,,,
985.54,-0.00038,-134.1,,,,,,,
985.59,-0.00043,-134.2,,,,,,,
985.64,-0.00048,-134.2,,,,,,,
985.69,-0.00053,-134.2,,,,,,,
985.74,-0.00058,-134.3,,,,,,,
985.8,-0.00064,-134.5,,,,,,,
985.8,-0.00064,-134.3,,,,,,,
985.85,-0.00069,-134.6,,,,,,,
985.9,-0.00074,-135.1,,,,,,,
985.95,-0.00079,-135.3,,,,,,,
986.0,-0.00084,-135.5,,,,,,,
986.05,-0.00089,-135.6,,,,,,,
986.09,-0.00094,-135.7,,,,,,,
986.14,-0.00099,-135.8,,,,,,,
986.2,-0.00104,-135.5,,,,,,,
986.25,-0.00109,-135.4,,,,,,,
986.3,-0.00114,-135.3,,,,,,,
986.3,-0.00115,-135.1,,,,,,,
986.35,-0.00119,-135.2,,,,,,,
986.4,-0.00124,-134.7,,,,,,,
986.45,-0.00129,-134.7,,,,,,,
986.5,-0.00134,-134.6,,,,,,,
986.55,-0.00139,-135.1,,,,,,,
986.6,-0.00144,-135.3,,,,,,,
986.66,-0.00149,-135.8,,,,,,,
986.7,-0.00155,-136.0,,,,,,,
986.75,-0.0016,-136.3,,,,,,,
986.8,-0.00165,-136.5,,,,,,,
986.8,-0.00165,-136.3,,,,,,,
986.85,-0.0017,-136.5,,,,,,,
986.9,-0.00175,-136.3,,,,,,,
986.96,-0.0018,-136.4,,,,,,,
987.01,-0.00185,-136.7,,,,,,,
987.06,-0.0019,-136.7,,,,,,,
987.11,-0.00195,-136.9,,,,,,,
987.16,-0.002,-137.0,,,,,,,
987.21,-0.00205,-137.2,,,,,,,
987.26,-0.0021,-137.3,,,,,,,
987.3,-0.00215,-137.2,,,,,,,
987.31,-0.00215,-137.3,,,,,,,
987.35,-0.0022,-137.1,,,,,,,
987.41,-0.00225,-137.0,,,,,,,
987.45,-0.0023,-137.0,,,,,,,
987.51,-0.00235,-136.6,,,,,,,
987.56,-0.00241,-136.6,,,,,,,
987.61,-0.00246,-136.7,,,,,,,
987.66,-0.00251,-136.8,,,,,,,
987.71,-0.00256,-136.9,,,,,,,
987.76,-0.00261,-136.9,,,,,,,
987.8,-0.00265,-136.9,,,,,,,
987.81,-0.00266,-137.1,,,,,,,
987.86,-0.00271,-137.1,,,,,,,
987.91,-0.00276,-137.2,,,,,,,
987.96,-0.00281,-137.2,,,,,,,
988.01,-0.00286,-137.2,,,,,,,
988.06,-0.00291,-137.2,,,,,,,
988.11,-0.00296,-137.3,,,,,,,
988.16,-0.00301,-137.5,,,,,,,
988.21,-0.00306,-137.5,,,,,,,
988.26,-0.00311,-137.5,,,,,,,
988.3,-0.00315,-137.6,,,,,,,
988.31,-0.00316,-137.8,,,,,,,
988.36,-0.00321,-137.6,,,,,,,
988.41,-0.00327,-137.7,,,,,,,
988.47,-0.00332,-137.8,,,,,,,
988.52,-0.00337,-137.8,,,,,,,
988.57,-0.00342,-138.3,,,,,,,
988.62,-0.00347,-138.6,,,,,,,
988.68,-0.00352,-138.7,,,,,,,
988.72,-0.00357,-139.1,,,,,,,
988.77,-0.00362,-139.2,,,,,,,
988.8,-0.00365,-139.2,,,,,,,
988.82,-0.00367,-139.4,,,,,,,
988.87,-0.00372,-139.4,,,,,,,
988.93,-0.00378,-139.7,,,,,,,
988.98,-0.00383,-139.7,,,,,,,
989.03,-0.00388,-139.7,,,,,,,
989.07,-0.00393,-139.9,,,,,,,
989.13,-0.00398,-140.1,,,,,,,
989.17,-0.00403,-140.0,,,,,,,
989.23,-0.00408,-140.0,,,,,,,
989.28,-0.00413,-140.0,,,,,,,
989.3,-0.00415,-139.9,,,,,,,
989.33,-0.00418,-140.1,,,,,,,
989.38,-0.00423,-140.3,,,,,,,
989.43,-0.00428,-140.6,,,,,,,
989.48,-0.00433,-140.7,,,,,,,
989.54,-0.00438,-140.9,,,,,,,
989.59,-0.00443,-141.3,,,,,,,
989.63,-0.00448,-141.7,,,,,,,
989.68,-0.00453,-142.0,,,,,,,
989.73,-0.00458,-142.2,,,,,,,
989.78,-0.00463,-142.3,,,,,,,
989.8,-0.00466,-142.2,,,,,,,
989.83,-0.00468,-142.1,,,,,,,
989.88,-0.00474,-141.9,,,,,,,
989.93,-0.00479,-141.9,,,,,,,
989.98,-0.00484,-141.7,,,,,,,
990.03,-0.00489,-141.5,,,,,,,
990.08,-0.00494,-141.3,,,,,,,
990.13,-0.00499,-141.2,,,,,,,
990.3,-0.00495,-115.2,,,,,,,
990.31,-0.00494,-112.9,,,,,,,
990.35,-0.00489,-104.1,,,,,,,
990.38,-0.00484,-96.27,,,,,,,
990.42,-0.00479,-89.1,,,,,,,
990.45,-0.00474,-81.73,,,,,,,
990.5,-0.00468,-74.84,,,,,,,
990.55,-0.00463,-67.91,,,,,,,
990.6,-0.00458,-61.34,,,,,,,
990.66,-0.00453,-54.57,,,,,,,
990.71,-0.00448,-48.23,,,,,,,
990.76,-0.00443,-42.27,,,,,,,
990.8,-0.0044,-37.87,,,,,,,
990.82,-0.00438,-36.42,,,,,,,
990.88,-0.00433,-29.76,,,,,,,
990.93,-0.00428,-23.44,,,,,,,
990.99,-0.00423,-17.2,,,,,,,
991.04,-0.00418,-11.78,,,,,,,
991.08,-0.00413,-6.79,,,,,,,
991.14,-0.00408,-0.68,,,,,,,
991.2,-0.00403,5.23,,,,,,,
991.25,-0.00397,10.16,,,,,,,
991.3,-0.00392,15.25,,,,,,,
991.3,-0.00392,15.54,,,,,,,
991.35,-0.00387,19.8,,,,,,,
991.4,-0.00382,25.09,,,,,,,
991.46,-0.00377,29.38,,,,,,,
991.55,-0.00372,32.65,,,,,,,
991.64,-0.00367,36.2,,,,,,,
991.71,-0.00362,41.25,,,,,,,
991.75,-0.00357,47.8,,,,,,,
991.78,-0.00352,53.32,,,,,,,
991.8,-0.00349,56.1,,,,,,,
991.82,-0.00347,58.3,,,,,,,
991.86,-0.00342,62.81,,,,,,,
991.92,-0.00337,66.77,,,,,,,
991.98,-0.00332,70.32,,,,,,,
992.04,-0.00327,73.77,,,,,,,
992.1,-0.00322,77.19,,,,,,,
992.16,-0.00317,81.16,,,,,,,
992.21,-0.00311,84.73,,,,,,,
992.27,-0.00306,88.52,,,,,,,
992.3,-0.00302,91.87,,,,,,,
992.31,-0.00301,92.79,,,,,,,
992.35,-0.00296,97.08,,,,,,,
992.38,-0.00291,101.1,,,,,,,
992.42,-0.00286,105.11,,,,,,,
992.45,-0.00281,108.9,,,,,,,
992.48,-0.00276,112.03,,,,,,,
992.52,-0.00271,115.04,,,,,,,
992.56,-0.00266,117.77,,,,,,,
992.6,-0.00261,119.78,,,,,,,
992.64,-0.00256,121.45,,,,,,,
992.69,-0.00251,123.03,,,,,,,
992.73,-0.00245,123.98,,,,,,,
992.78,-0.0024,124.95,,,,,,,
992.8,-0.00238,125.25,,,,,,,
992.83,-0.00235,125.62,,,,,,,
992.88,-0.0023,126.33,,,,,,,
992.93,-0.00225,126.58,,,,,,,
992.98,-0.0022,127.09,,,,,,,
993.03,-0.00215,127.78,,,,,,,
993.08,-0.0021,128.28,,,,,,,
993.13,-0.00205,128.59,,,,,,,
993.18,-0.002,128.92,,,,,,,
993.23,-0.00195,129.48,,,,,,,
993.28,-0.0019,129.51,,,,,,,
993.3,-0.00187,129.64,,,,,,,
993.33,-0.00185,129.91,,,,,,,
993.38,-0.00179,130.06,,,,,,,
993.43,-0.00174,130.21,,,,,,,
993.48,-0.00169,130.31,,,,,,,
993.53,-0.00164,130.36,,,,,,,
993.58,-0.00159,130.16,,,,,,,
993.63,-0.00154,130.29,,,,,,,
993.68,-0.00149,130.08,,,,,,,
993.73,-0.00144,129.78,,,,,,,
993.78,-0.00139,129.39,,,,,,,
993.8,-0.00137,129.46,,,,,,,
993.83,-0.00134,129.56,,,,,,,
993.88,-0.00129,129.79,,,,,,,
993.94,-0.00124,130.27,,,,,,,
993.98,-0.00119,130.37,,,,,,,
994.03,-0.00114,130.75,,,,,,,
994.08,-0.00109,130.69,,,,,,,
994.13,-0.00104,130.74,,,,,,,
994.18,-0.00098,130.81,,,,,,,
994.23,-0.00093,130.94,,,,,,,
994.28,-0.00088,131.01,,,,,,,
994.3,-0.00086,130.9,,,,,,,
994.33,-0.00083,130.82,,,,,,,
994.39,-0.00078,130.7,,,,,,,
994.44,-0.00073,130.86,,,,,,,
994.49,-0.00068,131.04,,,,,,,
994.54,-0.00063,130.94,,,,,,,
994.59,-0.00058,131.13,,,,,,,
994.64,-0.00053,131.28,,,,,,,
994.69,-0.00048,131.45,,,,,,,
994.74,-0.00043,131.6,,,,,,,
994.79,-0.00038,131.87,,,,,,,
994.8,-0.00036,131.83,,,,,,,
994.84,-0.00033,131.9,,,,,,,
994.89,-0.00028,131.96,,,,,,,
994.94,-0.00022,132.1,,,,,,,
994.99,-0.00017,131.76,,,,,,,
995.04,-0.00012,131.68,,,,,,,
995.09,-7e-05,131.74,,,,,,,
1960.53,0.00496,136.2,,,,,,,
1960.59,0.00501,135.23,,,,,,,
1960.73,0.00496,111.85,,,,,,,
1960.77,0.00491,103.36,,,,,,,
1960.8,0.00486,94.72,,,,,,,
1960.8,0.00486,94.45,,,,,,,
1960.83,0.00481,87.95,,,,,,,
1960.87,0.00476,80.64,,,,,,,
1960.92,0.00471,73.8,,,,,,,
1960.96,0.00466,67.1,,,,,,,
1961.02,0.00461,60.69,,,,,,,
1961.07,0.00456,54.71,,,,,,,
1961.12,0.0045,48.73,,,,,,,
1961.18,0.00445,42.64,,,,,,,
1961.23,0.0044,37.25,,,,,,,
1961.28,0.00435,31.53,,,,,,,
1961.3,0.00433,29.56,,,,,,,
1961.34,0.0043,25.99,,,,,,,
1961.39,0.00425,20.38,,,,,,,
1961.45,0.0042,15.16,,,,,,,
1961.5,0.00415,10.0,,,,,,,
1961.55,0.0041,4.87,,,,,,,
1961.6,0.00405,-0.43,,,,,,,
1961.66,0.004,-5.27,,,,,,,
1961.71,0.00395,-9.08,,,,,,,
1961.8,0.00392,-10.28,,,,,,,
1961.83,0.0039,-11.19,,,,,,,
1961.91,0.00385,-15.47,,,,,,,
1961.99,0.0038,-20.77,,,,,,,
1962.05,0.00375,-26.13,,,,,,,
1962.08,0.00369,-30.45,,,,,,,
1962.12,0.00364,-37.59,,,,,,,
1962.15,0.00359,-41.53,,,,,,,
1962.19,0.00354,-45.17,,,,,,,
1962.24,0.00349,-49.28,,,,,,,
1962.3,0.00344,-52.78,,,,,,,
1962.3,0.00343,-53.29,,,,,,,
1962.35,0.00339,-57.74,,,,,,,
1962.39,0.00334,-62.01,,,,,,,
1962.42,0.00329,-66.57,,,,,,,
1962.45,0.00323,-71.23,,,,,,,
1962.5,0.00318,-76.2,,,,,,,
1962.52,0.00313,-79.37,,,,,,,
1962.56,0.00308,-82.93,,,,,,,
1962.61,0.00303,-86.74,,,,,,,
1962.65,0.00298,-89.89,,,,,,,
1962.7,0.00293,-92.62,,,,,,,
1962.73,0.00288,-94.19,,,,,,,
1962.78,0.00283,-96.35,,,,,,,
1962.8,0.00282,-97.27,,,,,,,
1962.83,0.00278,-98.46,,,,,,,
1962.88,0.00273,-100.6,,,,,,,
1962.94,0.00268,-102.8,,,,,,,
1962.99,0.00263,-104.9,,,,,,,
1963.04,0.00257,-106.8,,,,,,,
1963.1,0.00252,-108.7,,,,,,,
1963.15,0.00247,-110.4,,,,,,,
1963.2,0.00242,-112.1,,,,,,,
1963.25,0.00237,-113.8,,,,,,,
1963.29,0.00232,-115.1,,,,,,,
1963.3,0.00231,-115.3,,,,,,,
1963.34,0.00227,-116.5,,,,,,,
1963.39,0.00222,-117.5,,,,,,,
1963.44,0.00216,-118.8,,,,,,,
1963.5,0.00211,-120.2,,,,,,,
1963.55,0.00206,-121.2,,,,,,,
1963.59,0.00201,-121.8,,,,,,,
1963.65,0.00196,-122.8,,,,,,,
1963.7,0.00191,-123.7,,,,,,,
1963.75,0.00186,-124.2,,,,,,,
1963.8,0.00181,-125.1,,,,,,,
1963.8,0.0018,-125.1,,,,,,,
1963.85,0.00176,-125.7,,,,,,,
1963.89,0.00171,-126.2,,,,,,,
1963.94,0.00166,-126.7,,,,,,,
1963.99,0.00161,-127.2,,,,,,,
1964.04,0.00156,-127.4,,,,,,,
1964.09,0.00151,-127.8,,,,,,,
1964.14,0.00146,-127.9,,,,,,,
1964.19,0.0014,-128.0,,,,,,,
1964.24,0.00135,-128.0,,,,,,,
1964.3,0.0013,-128.0,,,,,,,
1964.3,0.00129,-128.0,,,,,,,
1964.35,0.00125,-128.0,,,,,,,
1964.4,0.0012,-127.9,,,,,,,
1964.45,0.00115,-128.1,,,,,,,
1964.5,0.0011,-128.2,,,,,,,
1964.55,0.00105,-128.6,,,,,,,
1964.6,0.00099,-128.7,,,,,,,
1964.66,0.00094,-129.0,,,,,,,
1964.7,0.00089,-129.1,,,,,,,
1964.75,0.00084,-129.2,,,,,,,
1964.8,0.00079,-129.4,,,,,,,
1964.8,0.00079,-129.2,,,,,,,
1964.85,0.00074,-129.5,,,,,,,
1964.91,0.00069,-129.4,,,,,,,
1964.96,0.00064,-129.5,,,,,,,
1965.0,0.00059,-129.4,,,,,,,
1965.06,0.00054,-129.3,,,,,,,
1965.11,0.00049,-129.8,,,,,,,
1965.15,0.00044,-129.7,,,,,,,
1965.2,0.00039,-129.8,,,,,,,
1965.25,0.00034,-129.8,,,,,,,
1965.3,0.00029,-129.7,,,,,,,
1965.31,0.00029,-129.7,,,,,,,
1965.36,0.00024,-129.8,,,,,,,
1965.41,0.00019,-129.8,,,,,,,
1965.46,0.00013,-130.2,,,,,,,
1965.51,8e-05,-130.4,,,,,,,
1965.56,3e-05,-130.6,,,,,,,
1965.61,-2e-05,-130.8,,,,,,,
1965.66,-7e-05,-131.1,,,,,,,
1965.71,-0.00012,-131.3,,,,,,,
1965.76,-0.00017,-131.5,,,,,,,
1965.8,-0.00022,-131.4,,,,,,,
1965.81,-0.00022,-131.5,,,,,,,
1965.86,-0.00027,-131.6,,,,,,,
1965.91,-0.00032,-131.7,,,,,,,
1965.96,-0.00037,-131.4,,,,,,,
1966.01,-0.00042,-131.2,,,,,,,
1966.06,-0.00047,-131.2,,,,,,,
1966.11,-0.00052,-131.3,,,,,,,
1966.17,-0.00058,-131.1,,,,,,,
1966.22,-0.00063,-131.0,,,,,,,
1966.27,-0.00068,-131.1,,,,,,,
1966.3,-0.0007,-131.2,,,,,,,
1966.31,-0.00073,-131.4,,,,,,,
1966.37,-0.00078,-131.8,,,,,,,
1966.42,-0.00083,-131.9,,,,,,,
1966.47,-0.00088,-131.9,,,,,,,
1966.52,-0.00093,-131.9,,,,,,,
1966.57,-0.00098,-132.1,,,,,,,
1966.62,-0.00103,-132.2,,,,,,,
1966.67,-0.00108,-132.4,,,,,,,
1966.71,-0.00113,-132.5,,,,,,,
1966.76,-0.00118,-132.7,,,,,,,
1966.8,-0.00122,-132.6,,,,,,,
1966.82,-0.00123,-132.6,,,,,,,
1966.87,-0.00128,-132.7,,,,,,,
1966.93,-0.00133,-132.8,,,,,,,
1966.97,-0.00139,-133.0,,,,,,,
1967.03,-0.00144,-132.8,,,,,,,
1967.07,-0.00149,-132.8,,,,,,,
1967.13,-0.00154,-132.8,,,,,,,
1967.17,-0.00159,-132.7,,,,,,,
1967.23,-0.00164,-132.8,,,,,,,
1967.28,-0.00169,-132.8,,,,,,,
1967.3,-0.00171,-132.8,,,,,,,
1967.33,-0.00174,-132.9,,,,,,,
1967.38,-0.00179,-133.3,,,,,,,
1967.43,-0.00185,-133.6,,,,,,,
1967.49,-0.0019,-133.8,,,,,,,
1967.53,-0.00195,-133.9,,,,,,,
1967.59,-0.002,-134.1,,,,,,,
1967.64,-0.00205,-134.3,,,,,,,
1967.69,-0.0021,-134.8,,,,,,,
1967.74,-0.00215,-135.0,,,,,,,
1967.79,-0.0022,-135.1,,,,,,,
1967.8,-0.00222,-135.0,,,,,,,
1967.84,-0.00226,-135.1,,,,,,,
1967.89,-0.00231,-135.1,,,,,,,
1967.94,-0.00236,-135.0,,,,,,,
1967.99,-0.00241,-135.0,,,,,,,
1968.04,-0.00246,-134.9,,,,,,,
1968.09,-0.00251,-135.0,,,,,,,
1968.14,-0.00256,-135.0,,,,,,,
1968.2,-0.00261,-135.2,,,,,,,
1968.24,-0.00266,-135.1,,,,,,,
1968.3,-0.00271,-135.5,,,,,,,
1968.3,-0.00272,-135.6,,,,,,,
1968.35,-0.00276,-135.8,,,,,,,
1968.39,-0.00281,-136.1,,,,,,,
1968.44,-0.00286,-136.4,,,,,,,
1968.49,-0.00291,-136.3,,,,,,,
1968.54,-0.00296,-136.2,,,,,,,
1968.6,-0.00301,-136.3,,,,,,,
1968.64,-0.00306,-136.3,,,,,,,
1968.7,-0.00311,-136.5,,,,,,,
1968.75,-0.00316,-136.6,,,,,,,
1968.79,-0.00321,-136.5,,,,,,,
1968.8,-0.00322,-136.6,,,,,,,
1968.85,-0.00327,-136.6,,,,,,,
1968.9,-0.00332,-136.4,,,,,,,
1968.95,-0.00337,-136.5,,,,,,,
1969.0,-0.00342,-136.5,,,,,,,
1969.05,-0.00347,-136.9,,,,,,,
1969.1,-0.00352,-137.1,,,,,,,
1969.15,-0.00357,-137.3,,,,,,,
1969.2,-0.00362,-137.4,,,,,,,
1969.25,-0.00367,-137.6,,,,,,,
1969.3,-0.00372,-137.7,,,,,,,
1969.3,-0.00373,-137.8,,,,,,,
1969.35,-0.00377,-137.7,,,,,,,
1969.39,-0.00382,-137.6,,,,,,,
1969.44,-0.00387,-137.5,,,,,,,
1969.5,-0.00392,-137.0,,,,,,,
1969.55,-0.00397,-137.0,,,,,,,
1969.61,-0.00402,-137.1,,,,,,,
1969.65,-0.00408,-137.3,,,,,,,
1969.71,-0.00413,-137.5,,,,,,,
1969.76,-0.00418,-137.5,,,,,,,
1969.8,-0.00423,-138.1,,,,,,,
1969.86,-0.00428,-138.2,,,,,,,
1969.91,-0.00433,-138.3,,,,,,,
1969.96,-0.00438,-138.4,,,,,,,
1970.01,-0.00443,-138.5,,,,,,,
1970.06,-0.00448,-138.8,,,,,,,
1970.11,-0.00453,-138.9,,,,,,,
1970.16,-0.00459,-139.0,,,,,,,
1970.21,-0.00464,-139.1,,,,,,,
1970.26,-0.00469,-139.1,,,,,,,
1970.3,-0.00473,-139.2,,,,,,,
1970.32,-0.00474,-139.1,,,,,,,
1970.36,-0.00479,-139.2,,,,,,,
1970.42,-0.00484,-139.1,,,,,,,
1970.46,-0.00489,-139.1,,,,,,,
1970.52,-0.00494,-139.3,,,,,,,
1970.57,-0.00499,-139.1,,,,,,,
1970.74,-0.00494,-112.3,,,,,,,
1970.78,-0.00489,-103.1,,,,,,,
1970.8,-0.00485,-96.92,,,,,,,
1970.81,-0.00484,-95.51,,,,,,,
1970.84,-0.00479,-87.99,,,,,,,
1970.89,-0.00474,-80.26,,,,,,,
1970.93,-0.00469,-73.65,,,,,,,
1970.97,-0.00464,-67.18,,,,,,,
1971.03,-0.00459,-60.49,,,,,,,
1971.08,-0.00454,-54.1,,,,,,,
1971.14,-0.00449,-47.66,,,,,,,
1971.19,-0.00443,-41.74,,,,,,,
1971.25,-0.00438,-35.23,,,,,,,
1971.3,-0.00433,-29.86,,,,,,,
1971.3,-0.00433,-29.61,,,,,,,
1971.35,-0.00428,-24.26,,,,,,,
1971.41,-0.00423,-18.45,,,,,,,
1971.46,-0.00418,-12.97,,,,,,,
1971.51,-0.00413,-7.48,,,,,,,
1971.57,-0.00408,-1.9,,,,,,,
1971.61,-0.00403,3.14,,,,,,,
1971.67,-0.00398,8.04,,,,,,,
1971.72,-0.00393,13.14,,,,,,,
1971.77,-0.00388,18.12,,,,,,,
1971.8,-0.00385,20.66,,,,,,,
1971.83,-0.00383,22.84,,,,,,,
1971.88,-0.00378,27.29,,,,,,,
1971.94,-0.00373,31.29,,,,,,,
1972.04,-0.00368,34.45,,,,,,,
1972.13,-0.00363,38.29,,,,,,,
1972.19,-0.00358,44.12,,,,,,,
1972.22,-0.00352,49.83,,,,,,,
1972.25,-0.00347,55.16,,,,,,,
1972.29,-0.00342,59.45,,,,,,,
1972.3,-0.00341,61.16,,,,,,,
1972.33,-0.00337,63.59,,,,,,,
1972.39,-0.00332,67.1,,,,,,,
1972.45,-0.00327,70.34,,,,,,,
1972.52,-0.00322,73.48,,,,,,,
1972.57,-0.00317,76.56,,,,,,,
1972.64,-0.00312,80.33,,,,,,,
1972.69,-0.00307,84.17,,,,,,,
1972.74,-0.00302,87.78,,,,,,,
1972.78,-0.00297,92.38,,,,,,,
1972.8,-0.00294,94.54,,,,,,,
1972.82,-0.00292,96.52,,,,,,,
1972.85,-0.00287,100.88,,,,,,,
1972.89,-0.00282,104.7,,,,,,,
1972.92,-0.00277,108.53,,,,,,,
1972.96,-0.00272,112.24,,,,,,,
1972.99,-0.00267,114.65,,,,,,,
1973.03,-0.00262,117.17,,,,,,,
1973.07,-0.00257,119.27,,,,,,,
1973.11,-0.00251,120.64,,,,,,,
1973.16,-0.00246,121.49,,,,,,,
1973.2,-0.00241,122.4,,,,,,,
1973.25,-0.00236,123.13,,,,,,,
1973.3,-0.00231,123.52,,,,,,,
1973.3,-0.00231,123.62,,,,,,,
1973.35,-0.00226,124.25,,,,,,,
1973.4,-0.00221,125.06,,,,,,,
1973.45,-0.00216,125.53,,,,,,,
1973.51,-0.00211,126.04,,,,,,,
1973.55,-0.00206,126.69,,,,,,,
1973.6,-0.00201,127.12,,,,,,,
1973.65,-0.00196,127.79,,,,,,,
1973.7,-0.00191,128.18,,,,,,,
1973.75,-0.00186,128.4,,,,,,,
1973.8,-0.00181,128.71,,,,,,,
1973.8,-0.00181,128.68,,,,,,,
1973.85,-0.00175,129.04,,,,,,,
1973.9,-0.0017,129.0,,,,,,,
1973.95,-0.00165,129.21,,,,,,,
1974.0,-0.0016,129.57,,,,,,,
1974.05,-0.00155,129.74,,,,,,,
1974.1,-0.0015,129.69,,,,,,,
1974.15,-0.00145,129.53,,,,,,,
1974.2,-0.0014,129.53,,,,,,,
1974.26,-0.00135,129.4,,,,,,,
1974.3,-0.0013,129.45,,,,,,,
1974.3,-0.00129,129.48,,,,,,,
1974.35,-0.00125,129.49,,,,,,,
1974.41,-0.0012,129.46,,,,,,,
1974.45,-0.00115,129.48,,,,,,,
1974.5,-0.0011,129.68,,,,,,,
1974.55,-0.00104,130.0,,,,,,,
1974.61,-0.00099,130.19,,,,,,,
1974.66,-0.00094,130.6,,,,,,,
1974.71,-0.00089,130.96,,,,,,,
1974.76,-0.00084,131.09,,,,,,,
1974.8,-0.00079,131.19,,,,,,,
1974.81,-0.00079,131.22,,,,,,,
1974.86,-0.00074,131.23,,,,,,,
1974.91,-0.00069,131.27,,,,,,,
1974.95,-0.00064,131.37,,,,,,,
1975.01,-0.00059,131.39,,,,,,,
1975.06,-0.00054,131.42,,,,,,,
1975.1,-0.00049,131.27,,,,,,,
1975.16,-0.00044,131.27,,,,,,,
1975.21,-0.00039,131.14,,,,,,,
1975.26,-0.00033,131.18,,,,,,,
1975.3,-0.0003,131.37,,,,,,,
1975.32,-0.00028,131.53,,,,,,,
1975.37,-0.00023,131.52,,,,,,,
1975.41,-0.00018,131.58,,,,,,,
1975.46,-0.00013,131.62,,,,,,,
1975.52,-8e-05,131.81,,,,,,,
1975.56,-3e-05,131.82,,,,,,,
1975.62,2e-05,131.72,,,,,,,
1975.67,7e-05,131.79,,,,,,,
1975.72,0.00012,131.74,,,,,,,
1975.77,0.00017,131.6,,,,,,,
1975.8,0.00021,131.4,,,,,,,
1975.82,0.00022,131.41,,,,,,,
1975.87,0.00027,131.44,,,,,,,
1975.92,0.00032,131.28,,,,,,,
1975.97,0.00037,131.41,,,,,,,
1976.02,0.00043,131.4,,,,,,,
1976.07,0.00048,131.56,,,,,,,
1976.13,0.00053,131.87,,,,,,,
1976.17,0.00058,132.1,,,,,,,
1976.22,0.00063,132.0,,,,,,,
1976.28,0.00068,132.03,,,,,,,
1976.3,0.00071,132.02,,,,,,,
1976.33,0.00073,132.1,,,,,,,
1976.37,0.00078,132.2,,,,,,,
1976.42,0.00083,132.47,,,,,,,
1976.47,0.00088,132.31,,,,,,,
1976.53,0.00093,132.33,,,,,,,
1976.58,0.00098,132.34,,,,,,,
1976.62,0.00103,132.54,,,,,,,
1976.68,0.00108,132.46,,,,,,,
1976.73,0.00113,132.69,,,,,,,
1976.78,0.00118,132.79,,,,,,,
1976.8,0.00121,132.97,,,,,,,
1976.83,0.00123,133.12,,,,,,,
1976.88,0.00128,133.39,,,,,,,
1976.92,0.00133,133.66,,,,,,,
1976.98,0.00139,133.63,,,,,,,
1977.03,0.00144,133.68,,,,,,,
1977.08,0.00149,133.82,,,,,,,
1977.13,0.00154,133.66,,,,,,,
1977.18,0.00159,133.72,,,,,,,
1977.23,0.00164,133.62,,,,,,,
1977.28,0.00169,133.74,,,,,,,
1977.3,0.00171,133.69,,,,,,,
1977.33,0.00174,133.7,,,,,,,
1977.38,0.00179,133.7,,,,,,,
1977.43,0.00184,133.58,,,,,,,
1977.48,0.00189,133.61,,,,,,,
1977.53,0.00194,133.28,,,,,,,
1977.58,0.00199,133.27,,,,,,,
1977.63,0.00204,133.47,,,,,,,
1977.68,0.00209,133.37,,,,,,,
1977.74,0.00214,133.72,,,,,,,
1977.78,0.00219,133.88,,,,,,,
1977.8,0.00222,133.82,,,,,,,
1977.83,0.00224,133.87,,,,,,,
1977.88,0.0023,134.24,,,,,,,
1977.94,0.00235,134.21,,,,,,,
1977.99,0.0024,134.33,,,,,,,
1978.04,0.00245,134.39,,,,,,,
1978.09,0.0025,134.33,,,,,,,
1978.14,0.00255,134.6,,,,,,,
1978.19,0.0026,135.01,,,,,,,
1978.24,0.00265,135.08,,,,,,,
1978.29,0.0027,135.3,,,,,,,
1978.3,0.00272,135.25,,,,,,,
1978.34,0.00275,135.2,,,,,,,
1978.39,0.0028,135.33,,,,,,,
1978.44,0.00285,135.21,,,,,,,
1978.49,0.0029,135.18,,,,,,,
1978.54,0.00296,135.23,,,,,,,
1978.59,0.00301,134.84,,,,,,,
1978.64,0.00306,134.68,,,,,,,
1978.69,0.00311,134.43,,,,,,,
1978.74,0.00316,134.2,,,,,,,
1978.8,0.00321,134.24,,,,,,,
1978.8,0.00322,134.11,,,,,,,
1978.84,0.00326,134.05,,,,,,,
1978.89,0.00331,133.96,,,,,,,
1978.95,0.00336,134.06,,,,,,,
1979.0,0.00341,134.37,,,,,,,
1979.05,0.00346,134.51,,,,,,,
1979.1,0.00351,134.92,,,,,,,
1979.15,0.00356,135.18,,,,,,,
1979.2,0.00361,135.18,,,,,,,
1979.25,0.00366,135.16,,,,,,,
1979.3,0.00371,135.27,,,,,,,
1979.3,0.00372,135.08,,,,,,,
1979.35,0.00377,135.34,,,,,,,
1979.4,0.00382,135.42,,,,,,,
1979.45,0.00387,135.55,,,,,,,
1979.5,0.00392,135.73,,,,,,,
1979.55,0.00397,135.96,,,,,,,
1979.6,0.00402,136.17,,,,,,,
1979.65,0.00407,136.46,,,,,,,
1979.7,0.00412,136.19,,,,,,,
1979.74,0.00417,136.11,,,,,,,
1979.8,0.00422,135.84,,,,,,,
1979.8,0.00422,135.72,,,,,,,
1979.85,0.00427,135.53,,,,,,,
1979.91,0.00432,135.17,,,,,,,
1979.95,0.00437,135.3,,,,,,,
1980.0,0.00442,135.41,,,,,,,
1980.05,0.00447,135.66,,,,,,,
1980.1,0.00452,135.83,,,,,,,
1980.16,0.00457,136.08,,,,,,,
1980.2,0.00462,136.22,,,,,,,
1980.25,0.00468,136.3,,,,,,,
1980.3,0.00473,136.19,,,,,,,
1980.3,0.00473,136.04,,,,,,,
1980.35,0.00478,135.86,,,,,,,
1980.4,0.00483,135.72,,,,,,,
1980.46,0.00488,135.66,,,,,,,
1980.51,0.00493,135.48,,,,,,,
3961.41,0.00496,134.17,,,,,,,
3961.47,0.00501,133.22,,,,,,,
3961.61,0.00496,111.1,,,,,,,
3961.64,0.00491,103.25,,,,,,,
3961.68,0.00486,95.26,,,,,,,
3961.72,0.00481,87.65,,,,,,,
3961.75,0.00476,81.18,,,,,,,
3961.79,0.00471,74.2,,,,,,,
3961.8,0.00469,72.94,,,,,,,
3961.84,0.00466,68.1,,,,,,,
3961.89,0.00461,62.15,,,,,,,
3961.95,0.00456,55.34,,,,,,,
3962.01,0.0045,49.52,,,,,,,
3962.06,0.00445,43.35,,,,,,,
3962.11,0.0044,37.97,,,,,,,
3962.17,0.00435,31.7,,,,,,,
3962.22,0.0043,27.15,,,,,,,
3962.27,0.00425,21.24,,,,,,,
3962.3,0.00422,18.39,,,,,,,
3962.33,0.0042,16.33,,,,,,,
3962.37,0.00415,12.05,,,,,,,
3962.43,0.0041,6.82,,,,,,,
3962.49,0.00405,1.66,,,,,,,
3962.53,0.00399,-2.57,,,,,,,
3962.6,0.00394,-7.19,,,,,,,
3962.71,0.00389,-9.17,,,,,,,
3962.79,0.00384,-13.27,,,,,,,
3962.8,0.00384,-13.96,,,,,,,
3962.87,0.00379,-17.65,,,,,,,
3962.93,0.00374,-22.63,,,,,,,
3962.98,0.00369,-28.58,,,,,,,
3963.02,0.00364,-34.47,,,,,,,
3963.04,0.00359,-38.45,,,,,,,
3963.08,0.00354,-43.2,,,,,,,
3963.13,0.00349,-46.99,,,,,,,
3963.18,0.00344,-50.44,,,,,,,
3963.24,0.00338,-54.07,,,,,,,
3963.28,0.00333,-59.41,,,,,,,
3963.3,0.00329,-62.7,,,,,,,
3963.31,0.00328,-63.26,,,,,,,
3963.34,0.00323,-67.88,,,,,,,
3963.37,0.00318,-72.03,,,,,,,
3963.41,0.00313,-75.82,,,,,,,
3963.45,0.00308,-80.09,,,,,,,
3963.48,0.00303,-82.7,,,,,,,
3963.53,0.00298,-85.64,,,,,,,
3963.57,0.00293,-87.87,,,,,,,
3963.62,0.00288,-90.15,,,,,,,
3963.67,0.00283,-92.31,,,,,,,
3963.72,0.00278,-94.51,,,,,,,
3963.78,0.00272,-96.33,,,,,,,
3963.8,0.0027,-97.53,,,,,,,
3963.83,0.00267,-98.31,,,,,,,
3963.87,0.00262,-99.97,,,,,,,
3963.92,0.00257,-101.7,,,,,,,
3963.97,0.00252,-103.7,,,,,,,
3964.02,0.00247,-105.3,,,,,,,
3964.07,0.00242,-106.9,,,,,,,
3964.12,0.00237,-108.4,,,,,,,
3964.17,0.00232,-109.8,,,,,,,
3964.22,0.00227,-111.1,,,,,,,
3964.27,0.00221,-112.3,,,,,,,
3964.3,0.00219,-113.2,,,,,,,
3964.32,0.00216,-113.7,,,,,,,
3964.37,0.00211,-114.7,,,,,,,
3964.42,0.00206,-115.6,,,,,,,
3964.47,0.00201,-116.5,,,,,,,
3964.52,0.00196,-117.4,,,,,,,
3964.58,0.00191,-118.3,,,,,,,
3964.63,0.00186,-119.2,,,,,,,
3964.68,0.00181,-120.2,,,,,,,
3964.73,0.00176,-120.8,,,,,,,
3964.78,0.00171,-121.1,,,,,,,
3964.8,0.00167,-121.2,,,,,,,
3964.82,0.00165,-121.4,,,,,,,
3964.88,0.0016,-121.7,,,,,,,
3964.92,0.00155,-122.4,,,,,,,
3964.98,0.0015,-122.5,,,,,,,
3965.03,0.00145,-122.7,,,,,,,
3965.08,0.0014,-123.0,,,,,,,
3965.13,0.00135,-123.2,,,,,,,
3965.18,0.0013,-123.3,,,,,,,
3965.23,0.00125,-123.8,,,,,,,
3965.28,0.0012,-123.9,,,,,,,
3965.3,0.00117,-124.0,,,,,,,
3965.33,0.00115,-124.2,,,,,,,
3965.38,0.0011,-124.4,,,,,,,
3965.43,0.00105,-124.6,,,,,,,
3965.48,0.00099,-124.9,,,,,,,
3965.53,0.00094,-125.1,,,,,,,
3965.58,0.00089,-125.1,,,,,,,
3965.63,0.00084,-125.2,,,,,,,
3965.68,0.00079,-125.5,,,,,,,
3965.73,0.00074,-125.8,,,,,,,
3965.78,0.00069,-125.9,,,,,,,
3965.8,0.00067,-125.8,,,,,,,
3965.83,0.00064,-126.1,,,,,,,
3965.88,0.00059,-126.2,,,,,,,
3965.93,0.00054,-126.3,,,,,,,
3965.98,0.00049,-126.3,,,,,,,
3966.04,0.00044,-126.2,,,,,,,
3966.09,0.00039,-126.4,,,,,,,
3966.14,0.00034,-126.6,,,,,,,
3966.19,0.00029,-126.8,,,,,,,
3966.24,0.00024,-127.0,,,,,,,
3966.28,0.00019,-127.4,,,,,,,
3966.3,0.00016,-127.2,,,,,,,
3966.33,0.00014,-127.4,,,,,,,
3966.38,9e-05,-127.0,,,,,,,
3966.44,3e-05,-126.8,,,,,,,
3966.49,-2e-05,-126.9,,,,,,,
3966.54,-7e-05,-127.0,,,,,,,
3966.59,-0.00012,-127.1,,,,,,,
3966.64,-0.00017,-127.4,,,,,,,
3966.68,-0.00022,-127.5,,,,,,,
3966.74,-0.00027,-127.5,,,,,,,
3966.79,-0.00032,-127.6,,,,,,,
3966.8,-0.00033,-127.5,,,,,,,
3966.85,-0.00037,-127.8,,,,,,,
3966.89,-0.00042,-128.3,,,,,,,
3966.94,-0.00047,-128.2,,,,,,,
3966.99,-0.00052,-128.2,,,,,,,
3967.04,-0.00057,-127.9,,,,,,,
3967.09,-0.00062,-127.9,,,,,,,
3967.15,-0.00067,-128.0,,,,,,,
3967.2,-0.00072,-128.2,,,,,,,
3967.25,-0.00078,-128.6,,,,,,,
3967.3,-0.00083,-128.9,,,,,,,
3967.3,-0.00083,-128.7,,,,,,,
3967.35,-0.00088,-129.1,,,,,,,
3967.4,-0.00093,-129.0,,,,,,,
3967.45,-0.00098,-129.0,,,,,,,
3967.5,-0.00103,-129.0,,,,,,,
3967.54,-0.00108,-129.0,,,,,,,
3967.6,-0.00113,-129.0,,,,,,,
3967.65,-0.00118,-129.2,,,,,,,
3967.7,-0.00123,-129.1,,,,,,,
3967.75,-0.00128,-129.0,,,,,,,
3967.8,-0.00133,-129.2,,,,,,,
3967.8,-0.00134,-129.1,,,,,,,
3967.85,-0.00138,-129.4,,,,,,,
3967.9,-0.00143,-129.7,,,,,,,
3967.95,-0.00148,-129.8,,,,,,,
3968.0,-0.00154,-130.1,,,,,,,
3968.06,-0.00159,-130.1,,,,,,,
3968.1,-0.00164,-129.9,,,,,,,
3968.16,-0.00169,-129.9,,,,,,,
3968.21,-0.00174,-130.2,,,,,,,
3968.26,-0.00179,-130.4,,,,,,,
3968.3,-0.00184,-130.4,,,,,,,
3968.35,-0.00189,-130.5,,,,,,,
3968.4,-0.00194,-130.6,,,,,,,
3968.45,-0.00199,-130.6,,,,,,,
3968.51,-0.00204,-130.5,,,,,,,
3968.56,-0.00209,-130.5,,,,,,,
3968.61,-0.00214,-130.8,,,,,,,
3968.65,-0.00219,-130.6,,,,,,,
3968.7,-0.00224,-130.9,,,,,,,
3968.75,-0.00229,-130.7,,,,,,,
3968.8,-0.00234,-130.7,,,,,,,
3968.81,-0.00235,-130.8,,,,,,,
3968.86,-0.0024,-130.8,,,,,,,
3968.91,-0.00245,-130.8,,,,,,,
3968.97,-0.0025,-131.2,,,,,,,
3969.02,-0.00255,-131.8,,,,,,,
3969.06,-0.0026,-132.1,,,,,,,
3969.11,-0.00265,-132.4,,,,,,,
3969.16,-0.0027,-132.6,,,,,,,
3969.21,-0.00275,-132.7,,,,,,,
3969.26,-0.0028,-132.7,,,,,,,
3969.3,-0.00284,-132.5,,,,,,,
3969.31,-0.00285,-132.4,,,,,,,
3969.37,-0.0029,-132.0,,,,,,,
3969.42,-0.00295,-132.0,,,,,,,
3969.47,-0.003,-132.2,,,,,,,
3969.52,-0.00305,-132.5,,,,,,,
3969.56,-0.0031,-132.6,,,,,,,
3969.61,-0.00315,-132.8,,,,,,,
3969.66,-0.0032,-132.8,,,,,,,
3969.71,-0.00326,-132.7,,,,,,,
3969.76,-0.00331,-132.6,,,,,,,
3969.8,-0.00334,-132.6,,,,,,,
3969.82,-0.00336,-132.6,,,,,,,
3969.87,-0.00341,-132.4,,,,,,,
3969.92,-0.00346,-132.5,,,,,,,
3969.97,-0.00351,-132.9,,,,,,,
3970.02,-0.00356,-133.1,,,,,,,
3970.07,-0.00361,-133.3,,,,,,,
3970.11,-0.00366,-133.5,,,,,,,
3970.16,-0.00371,-133.4,,,,,,,
3970.21,-0.00376,-133.4,,,,,,,
3970.27,-0.00381,-133.3,,,,,,,
3970.3,-0.00384,-133.3,,,,,,,
3970.32,-0.00386,-133.2,,,,,,,
3970.36,-0.00391,-133.3,,,,,,,
3970.42,-0.00396,-133.5,,,,,,,
3970.47,-0.00401,-133.4,,,,,,,
3970.52,-0.00406,-133.3,,,,,,,
3970.57,-0.00411,-133.6,,,,,,,
3970.62,-0.00416,-133.3,,,,,,,
3970.67,-0.00421,-133.5,,,,,,,
3970.72,-0.00426,-133.4,,,,,,,
3970.77,-0.00432,-133.3,,,,,,,
3970.8,-0.00434,-133.7,,,,,,,
3970.82,-0.00437,-133.5,,,,,,,
3970.87,-0.00442,-133.9,,,,,,,
3970.92,-0.00447,-134.0,,,,,,,
3970.98,-0.00452,-134.3,,,,,,,
3971.03,-0.00457,-134.3,,,,,,,
3971.08,-0.00462,-134.4,,,,,,,
3971.13,-0.00467,-134.7,,,,,,,
3971.18,-0.00472,-135.0,,,,,,,
3971.23,-0.00477,-134.9,,,,,,,
3971.28,-0.00482,-135.2,,,,,,,
3971.3,-0.00484,-135.3,,,,,,,
3971.33,-0.00487,-135.2,,,,,,,
3971.38,-0.00493,-135.3,,,,,,,
3971.44,-0.00498,-135.8,,,,,,,
3971.5,-0.00503,-133.0,,,,,,,
3971.6,-0.00498,-114.4,,,,,,,
3971.63,-0.00492,-105.8,,,,,,,
3971.67,-0.00487,-97.16,,,,,,,
3971.7,-0.00482,-89.22,,,,,,,
3971.74,-0.00477,-81.35,,,,,,,
3971.78,-0.00472,-74.3,,,,,,,
3971.8,-0.00469,-71.06,,,,,,,
3971.82,-0.00467,-68.68,,,,,,,
3971.87,-0.00462,-61.95,,,,,,,
3971.92,-0.00457,-55.57,,,,,,,
3971.98,-0.00452,-49.83,,,,,,,
3972.03,-0.00447,-43.41,,,,,,,
3972.09,-0.00442,-37.55,,,,,,,
3972.15,-0.00437,-31.05,,,,,,,
3972.2,-0.00432,-25.69,,,,,,,
3972.25,-0.00427,-20.23,,,,,,,
3972.3,-0.00422,-14.75,,,,,,,
3972.3,-0.00421,-14.36,,,,,,,
3972.35,-0.00417,-9.26,,,,,,,
3972.4,-0.00412,-4.29,,,,,,,
3972.46,-0.00407,1.05,,,,,,,
3972.51,-0.00401,6.07,,,,,,,
3972.56,-0.00396,10.61,,,,,,,
3972.62,-0.00391,15.71,,,,,,,
3972.67,-0.00386,20.16,,,,,,,
3972.72,-0.00381,24.76,,,,,,,
3972.77,-0.00376,29.03,,,,,,,
3972.8,-0.00374,31.04,,,,,,,
3972.84,-0.00371,32.76,,,,,,,
3972.94,-0.00366,35.63,,,,,,,
3973.02,-0.00361,39.18,,,,,,,
3973.07,-0.00356,44.4,,,,,,,
3973.11,-0.00351,50.02,,,,,,,
3973.14,-0.00346,55.36,,,,,,,
3973.18,-0.00341,59.58,,,,,,,
3973.22,-0.00336,63.43,,,,,,,
3973.28,-0.00331,66.33,,,,,,,
3973.3,-0.00329,67.82,,,,,,,
3973.34,-0.00326,69.34,,,,,,,
3973.4,-0.00321,72.61,,,,,,,
3973.46,-0.00316,75.9,,,,,,,
3973.52,-0.00311,79.2,,,,,,,
3973.57,-0.00306,82.43,,,,,,,
3973.63,-0.00301,85.99,,,,,,,
3973.67,-0.00295,89.63,,,,,,,
3973.71,-0.0029,93.98,,,,,,,
3973.74,-0.00285,97.9,,,,,,,
3973.78,-0.0028,101.75,,,,,,,
3973.8,-0.00276,104.44,,,,,,,
3973.81,-0.00275,105.18,,,,,,,
3973.84,-0.0027,108.08,,,,,,,
3973.88,-0.00265,111.14,,,,,,,
3973.92,-0.0026,113.38,,,,,,,
3973.96,-0.00255,115.32,,,,,,,
3974.0,-0.0025,116.81,,,,,,,
3974.05,-0.00245,117.88,,,,,,,
3974.09,-0.0024,118.86,,,,,,,
3974.14,-0.00235,119.5,,,,,,,
3974.2,-0.0023,119.98,,,,,,,
3974.24,-0.00225,120.65,,,,,,,
3974.29,-0.0022,121.15,,,,,,,
3974.3,-0.0022,121.3,,,,,,,
3974.35,-0.00215,122.07,,,,,,,
3974.4,-0.0021,123.03,,,,,,,
3974.45,-0.00205,123.93,,,,,,,
3974.5,-0.002,124.61,,,,,,,
3974.55,-0.00195,125.45,,,,,,,
3974.59,-0.00189,126.14,,,,,,,
3974.64,-0.00184,126.72,,,,,,,
3974.69,-0.00179,126.87,,,,,,,
3974.74,-0.00174,126.94,,,,,,,
3974.79,-0.00169,127.19,,,,,,,
3974.8,-0.00168,127.07,,,,,,,
3974.84,-0.00164,127.19,,,,,,,
3974.89,-0.00159,127.36,,,,,,,
3974.94,-0.00154,127.65,,,,,,,
3974.99,-0.00149,127.68,,,,,,,
3975.04,-0.00144,127.86,,,,,,,
3975.09,-0.00139,127.64,,,,,,,
3975.14,-0.00134,127.44,,,,,,,
3975.2,-0.00129,127.46,,,,,,,
3975.25,-0.00124,127.81,,,,,,,
3975.3,-0.00119,128.0,,,,,,,
3975.3,-0.00118,128.11,,,,,,,
3975.34,-0.00114,128.36,,,,,,,
3975.39,-0.00109,128.65,,,,,,,
3975.44,-0.00104,128.81,,,,,,,
3975.49,-0.00099,128.86,,,,,,,
3975.54,-0.00094,128.76,,,,,,,
3975.59,-0.00088,128.7,,,,,,,
3975.65,-0.00083,128.41,,,,,,,
3975.7,-0.00078,128.62,,,,,,,
3975.75,-0.00073,128.64,,,,,,,
3975.8,-0.00068,129.26,,,,,,,
3975.8,-0.00068,129.19,,,,,,,
3975.85,-0.00063,129.57,,,,,,,
3975.89,-0.00058,129.64,,,,,,,
3975.95,-0.00053,129.83,,,,,,,
3975.99,-0.00048,129.88,,,,,,,
3976.04,-0.00043,129.48,,,,,,,
3976.09,-0.00038,129.31,,,,,,,
3976.14,-0.00033,128.79,,,,,,,
3976.19,-0.00028,128.36,,,,,,,
3976.25,-0.00023,128.26,,,,,,,
3976.3,-0.00018,128.39,,,,,,,
3976.3,-0.00017,128.41,,,,,,,
3976.35,-0.00013,128.58,,,,,,,
3976.4,-8e-05,128.62,,,,,,,
3976.45,-3e-05,128.39,,,,,,,
3976.5,2e-05,128.61,,,,,,,
3976.56,8e-05,128.88,,,,,,,
3976.61,0.00013,129.18,,,,,,,
3976.66,0.00018,129.45,,,,,,,
3976.71,0.00023,129.53,,,,,,,
3976.76,0.00028,130.0,,,,,,,
3976.8,0.00033,130.24,,,,,,,
3976.81,0.00033,130.43,,,,,,,
3976.85,0.00038,130.44,,,,,,,
3976.91,0.00043,130.69,,,,,,,
3976.95,0.00048,130.54,,,,,,,
3977.01,0.00053,130.5,,,,,,,
3977.06,0.00058,130.35,,,,,,,
3977.11,0.00063,130.55,,,,,,,
3977.16,0.00068,130.97,,,,,,,
3977.2,0.00073,131.17,,,,,,,
3977.26,0.00078,131.23,,,,,,,
3977.3,0.00083,131.24,,,,,,,
3977.31,0.00084,131.2,,,,,,,
3977.36,0.00089,131.38,,,,,,,
3977.41,0.00094,131.32,,,,,,,
3977.46,0.00099,131.52,,,,,,,
3977.51,0.00104,131.76,,,,,,,
3977.56,0.00109,131.88,,,,,,,
3977.62,0.00114,131.89,,,,,,,
3977.66,0.00119,132.09,,,,,,,
3977.71,0.00124,131.99,,,,,,,
3977.77,0.00129,132.01,,,,,,,
3977.8,0.00134,131.96,,,,,,,
3977.82,0.00134,131.99,,,,,,,
3977.86,0.00139,131.85,,,,,,,
3977.92,0.00144,131.78,,,,,,,
3977.96,0.00149,132.08,,,,,,,
3978.02,0.00155,132.14,,,,,,,
3978.07,0.0016,132.14,,,,,,,
3978.12,0.00165,132.32,,,,,,,
3978.17,0.0017,132.31,,,,,,,
3978.21,0.00175,132.27,,,,,,,
3978.26,0.0018,132.22,,,,,,,
3978.3,0.00184,132.07,,,,,,,
3978.31,0.00185,132.14,,,,,,,
3978.37,0.0019,132.06,,,,,,,
3978.42,0.00195,131.86,,,,,,,
3978.47,0.002,132.08,,,,,,,
3978.52,0.00205,132.08,,,,,,,
3978.57,0.0021,132.29,,,,,,,
3978.62,0.00215,132.39,,,,,,,
3978.67,0.0022,132.44,,,,,,,
3978.72,0.00225,132.5,,,,,,,
3978.77,0.0023,132.56,,,,,,,
3978.8,0.00234,132.46,,,,,,,
3978.82,0.00235,132.53,,,,,,,
3978.87,0.0024,132.54,,,,,,,
3978.93,0.00245,132.73,,,,,,,
3978.97,0.0025,132.98,,,,,,,
3979.03,0.00255,133.26,,,,,,,
3979.07,0.0026,133.39,,,,,,,
3979.12,0.00265,133.43,,,,,,,
3979.17,0.00271,133.69,,,,,,,
3979.22,0.00276,133.73,,,,,,,
3979.27,0.00281,133.74,,,,,,,
3979.3,0.00284,133.76,,,,,,,
3979.32,0.00286,133.72,,,,,,,
3979.38,0.00291,133.51,,,,,,,
3979.42,0.00296,133.46,,,,,,,
3979.47,0.00301,133.68,,,,,,,
3979.53,0.00306,133.44,,,,,,,
3979.58,0.00311,133.48,,,,,,,
3979.63,0.00316,133.37,,,,,,,
3979.68,0.00321,133.27,,,,,,,
3979.73,0.00326,133.5,,,,,,,
3979.78,0.00331,133.63,,,,,,,
3979.8,0.00334,133.8,,,,,,,
3979.83,0.00336,133.93,,,,,,,
3979.88,0.00341,134.23,,,,,,,
3979.93,0.00346,134.29,,,,,,,
3979.98,0.00351,134.29,,,,,,,
3980.03,0.00357,134.33,,,,,,,
3980.08,0.00362,134.45,,,,,,,
3980.13,0.00367,134.53,,,,,,,
3980.18,0.00372,134.64,,,,,,,
3980.23,0.00377,134.82,,,,,,,
3980.28,0.00382,135.13,,,,,,,
3980.3,0.00384,135.21,,,,,,,
3980.33,0.00387,135.21,,,,,,,
3980.38,0.00392,135.08,,,,,,,
3980.43,0.00397,134.96,,,,,,,
3980.48,0.00402,135.03,,,,,,,
3980.53,0.00407,135.09,,,,,,,
3980.58,0.00412,134.92,,,,,,,
3980.63,0.00417,135.02,,,,,,,
3980.68,0.00422,135.1,,,,,,,
3980.73,0.00427,135.14,,,,,,,
3980.79,0.00432,135.08,,,,,,,
3980.8,0.00434,135.15,,,,,,,
3980.84,0.00437,135.06,,,,,,,
3980.89,0.00442,135.29,,,,,,,
3980.94,0.00447,135.6,,,,,,,
3980.99,0.00452,135.74,,,,,,,
3981.03,0.00458,135.84,,,,,,,
3981.08,0.00463,135.91,,,,,,,
3981.13,0.00468,135.73,,,,,,,
3981.19,0.00473,135.65,,,,,,,
3981.24,0.00478,135.59,,,,,,,
3981.29,0.00483,135.35,,,,,,,
3981.3,0.00484,135.4,,,,,,,
3981.34,0.00488,135.45,,,,,,,
3981.39,0.00493,135.56,,,,,,,
9964.08,0.00499,127.48,,,,,,,
9964.15,0.00504,123.35,,,,,,,
9964.23,0.00499,109.69,,,,,,,
9964.27,0.00494,101.02,,,,,,,
9964.3,0.00488,93.81,,,,,,,
9964.3,0.00487,92.49,,,,,,,
9964.33,0.00483,87.59,,,,,,,
9964.36,0.00478,81.18,,,,,,,
9964.4,0.00473,75.02,,,,,,,
9964.44,0.00468,69.68,,,,,,,
9964.5,0.00463,63.91,,,,,,,
9964.55,0.00458,58.63,,,,,,,
9964.61,0.00453,53.33,,,,,,,
9964.66,0.00448,48.31,,,,,,,
9964.72,0.00443,43.16,,,,,,,
9964.77,0.00438,38.25,,,,,,,
9964.8,0.00435,35.18,,,,,,,
9964.83,0.00433,33.05,,,,,,,
9964.88,0.00428,27.76,,,,,,,
9964.93,0.00423,23.19,,,,,,,
9964.98,0.00418,18.55,,,,,,,
9965.03,0.00413,14.36,,,,,,,
9965.08,0.00408,9.35,,,,,,,
9965.14,0.00403,5.36,,,,,,,
9965.19,0.00397,0.92,,,,,,,
9965.25,0.00392,-3.54,,,,,,,
9965.3,0.0039,-5.24,,,,,,,
9965.36,0.00387,-6.21,,,,,,,
9965.45,0.00382,-10.31,,,,,,,
9965.52,0.00377,-14.49,,,,,,,
9965.59,0.00372,-18.94,,,,,,,
9965.63,0.00367,-22.88,,,,,,,
9965.68,0.00362,-28.14,,,,,,,
9965.71,0.00357,-32.85,,,,,,,
9965.74,0.00352,-36.96,,,,,,,
9965.78,0.00347,-40.89,,,,,,,
9965.8,0.00344,-42.81,,,,,,,
9965.83,0.00342,-44.28,,,,,,,
9965.88,0.00337,-47.47,,,,,,,
9965.93,0.00332,-51.02,,,,,,,
9965.96,0.00327,-55.14,,,,,,,
9965.99,0.00322,-59.0,,,,,,,
9966.03,0.00317,-62.47,,,,,,,
9966.06,0.00312,-65.61,,,,,,,
9966.09,0.00307,-69.0,,,,,,,
9966.13,0.00302,-71.95,,,,,,,
9966.17,0.00297,-74.05,,,,,,,
9966.21,0.00292,-76.23,,,,,,,
9966.26,0.00287,-77.95,,,,,,,
9966.3,0.00283,-79.3,,,,,,,
9966.31,0.00282,-79.44,,,,,,,
9966.37,0.00276,-81.11,,,,,,,
9966.42,0.00271,-82.74,,,,,,,
9966.47,0.00266,-84.49,,,,,,,
9966.53,0.00261,-86.33,,,,,,,
9966.57,0.00256,-88.22,,,,,,,
9966.63,0.00251,-89.99,,,,,,,
9966.68,0.00246,-91.81,,,,,,,
9966.72,0.00241,-93.54,,,,,,,
9966.77,0.00236,-94.97,,,,,,,
9966.8,0.00233,-95.96,,,,,,,
9966.82,0.00231,-96.19,,,,,,,
9966.87,0.00226,-97.44,,,,,,,
9966.92,0.00221,-98.42,,,,,,,
9966.97,0.00216,-99.32,,,,,,,
9967.02,0.00211,-100.3,,,,,,,
9967.07,0.00206,-101.2,,,,,,,
9967.12,0.00201,-101.7,,,,,,,
9967.17,0.00196,-102.4,,,,,,,
9967.22,0.00191,-102.9,,,,,,,
9967.27,0.00185,-103.5,,,,,,,
9967.3,0.00182,-104.0,,,,,,,
9967.32,0.0018,-104.1,,,,,,,
9967.37,0.00175,-104.7,,,,,,,
9967.42,0.0017,-105.2,,,,,,,
9967.47,0.00165,-105.8,,,,,,,
9967.52,0.0016,-106.2,,,,,,,
9967.57,0.00155,-106.7,,,,,,,
9967.62,0.0015,-107.6,,,,,,,
9967.67,0.00145,-108.5,,,,,,,
9967.72,0.0014,-109.1,,,,,,,
9967.77,0.00135,-109.7,,,,,,,
9967.8,0.00132,-110.0,,,,,,,
9967.82,0.0013,-110.1,,,,,,,
9967.87,0.00125,-110.5,,,,,,,
9967.92,0.0012,-110.8,,,,,,,
9967.97,0.00115,-110.9,,,,,,,
9968.02,0.0011,-111.0,,,,,,,
9968.07,0.00104,-111.1,,,,,,,
9968.12,0.00099,-111.1,,,,,,,
9968.17,0.00094,-111.0,,,,,,,
9968.22,0.00089,-111.0,,,,,,,
9968.27,0.00084,-111.0,,,,,,,
9968.3,0.00081,-111.0,,,,,,,
9968.32,0.00079,-111.0,,,,,,,
9968.37,0.00074,-110.9,,,,,,,
9968.43,0.00069,-111.0,,,,,,,
9968.48,0.00064,-111.3,,,,,,,
9968.53,0.00059,-111.6,,,,,,,
9968.59,0.00054,-112.2,,,,,,,
9968.64,0.00049,-113.1,,,,,,,
9968.68,0.00044,-113.8,,,,,,,
9968.73,0.00039,-114.2,,,,,,,
9968.78,0.00034,-114.7,,,,,,,
9968.8,0.00031,-114.9,,,,,,,
9968.83,0.00029,-115.1,,,,,,,
9968.87,0.00024,-115.1,,,,,,,
9968.92,0.00018,-115.3,,,,,,,
9968.97,0.00013,-115.2,,,,,,,
9969.02,8e-05,-115.1,,,,,,,
9969.07,3e-05,-114.8,,,,,,,
9969.12,-2e-05,-114.6,,,,,,,
9969.17,-7e-05,-114.3,,,,,,,
9969.22,-0.00012,-114.0,,,,,,,
9969.28,-0.00017,-113.7,,,,,,,
9969.3,-0.0002,-113.7,,,,,,,
9969.32,-0.00022,-113.7,,,,,,,
9969.37,-0.00027,-113.7,,,,,,,
9969.42,-0.00032,-113.6,,,,,,,
9969.48,-0.00037,-113.6,,,,,,,
9969.53,-0.00042,-113.7,,,,,,,
9969.58,-0.00047,-113.7,,,,,,,
9969.63,-0.00052,-114.1,,,,,,,
9969.68,-0.00057,-114.4,,,,,,,
9969.73,-0.00062,-114.7,,,,,,,
9969.78,-0.00067,-115.0,,,,,,,
9969.8,-0.00069,-115.0,,,,,,,
9969.83,-0.00072,-115.0,,,,,,,
9969.88,-0.00077,-115.3,,,,,,,
9969.93,-0.00082,-115.4,,,,,,,
9969.98,-0.00087,-115.3,,,,,,,
9970.03,-0.00092,-115.7,,,,,,,
9970.08,-0.00097,-115.5,,,,,,,
9970.14,-0.00102,-115.5,,,,,,,
9970.19,-0.00107,-115.4,,,,,,,
9970.24,-0.00113,-115.7,,,,,,,
9970.28,-0.00118,-115.8,,,,,,,
9970.3,-0.0012,-115.8,,,,,,,
9970.33,-0.00123,-115.7,,,,,,,
9970.38,-0.00128,-116.0,,,,,,,
9970.43,-0.00133,-115.9,,,,,,,
9970.49,-0.00138,-115.9,,,,,,,
9970.54,-0.00143,-115.8,,,,,,,
9970.59,-0.00148,-116.1,,,,,,,
9970.64,-0.00153,-116.4,,,,,,,
9970.69,-0.00158,-116.5,,,,,,,
9970.74,-0.00163,-116.6,,,,,,,
9970.79,-0.00168,-116.8,,,,,,,
9970.8,-0.0017,-116.7,,,,,,,
9970.84,-0.00173,-116.9,,,,,,,
9970.89,-0.00178,-117.0,,,,,,,
9970.94,-0.00183,-117.0,,,,,,,
9970.99,-0.00189,-116.8,,,,,,,
9971.04,-0.00194,-116.9,,,,,,,
9971.09,-0.00199,-117.0,,,,,,,
9971.14,-0.00204,-116.9,,,,,,,
9971.19,-0.00209,-116.8,,,,,,,
9971.24,-0.00214,-116.7,,,,,,,
9971.3,-0.00219,-116.7,,,,,,,
9971.3,-0.0022,-116.9,,,,,,,
9971.35,-0.00224,-117.0,,,,,,,
9971.4,-0.00229,-117.2,,,,,,,
9971.45,-0.00234,-117.6,,,,,,,
9971.5,-0.00239,-117.7,,,,,,,
9971.55,-0.00244,-118.0,,,,,,,
9971.6,-0.00249,-118.2,,,,,,,
9971.65,-0.00254,-118.6,,,,,,,
9971.7,-0.0026,-118.8,,,,,,,
9971.75,-0.00265,-119.1,,,,,,,
9971.79,-0.0027,-119.2,,,,,,,
9971.8,-0.0027,-119.2,,,,,,,
9971.85,-0.00275,-119.3,,,,,,,
9971.9,-0.0028,-119.3,,,,,,,
9971.95,-0.00285,-119.2,,,,,,,
9972.0,-0.0029,-119.4,,,,,,,
9972.05,-0.00295,-119.8,,,,,,,
9972.1,-0.003,-120.1,,,,,,,
9972.15,-0.00305,-120.3,,,,,,,
9972.2,-0.0031,-120.4,,,,,,,
9972.26,-0.00315,-120.2,,,,,,,
9972.3,-0.0032,-120.5,,,,,,,
9972.3,-0.0032,-120.4,,,,,,,
9972.35,-0.00325,-120.5,,,,,,,
9972.41,-0.0033,-120.4,,,,,,,
9972.45,-0.00335,-120.3,,,,,,,
9972.51,-0.0034,-120.5,,,,,,,
9972.56,-0.00345,-120.8,,,,,,,
9972.61,-0.00351,-120.9,,,,,,,
9972.66,-0.00356,-121.1,,,,,,,
9972.71,-0.00361,-121.5,,,,,,,
9972.76,-0.00366,-121.4,,,,,,,
9972.8,-0.0037,-121.4,,,,,,,
9972.81,-0.00371,-121.5,,,,,,,
9972.86,-0.00376,-121.3,,,,,,,
9972.91,-0.00381,-121.3,,,,,,,
9972.96,-0.00386,-121.5,,,,,,,
9973.01,-0.00391,-121.6,,,,,,,
9973.06,-0.00396,-121.3,,,,,,,
9973.11,-0.00401,-121.1,,,,,,,
9973.16,-0.00406,-121.4,,,,,,,
9973.22,-0.00411,-121.4,,,,,,,
9973.26,-0.00416,-121.7,,,,,,,
9973.3,-0.00421,-122.0,,,,,,,
9973.32,-0.00422,-122.0,,,,,,,
9973.36,-0.00427,-122.1,,,,,,,
9973.42,-0.00432,-122.1,,,,,,,
9973.46,-0.00437,-121.9,,,,,,,
9973.52,-0.00442,-122.1,,,,,,,
9973.57,-0.00447,-122.2,,,,,,,
9973.62,-0.00452,-122.1,,,,,,,
9973.67,-0.00457,-122.6,,,,,,,
9973.72,-0.00462,-122.9,,,,,,,
9973.77,-0.00467,-123.1,,,,,,,
9973.8,-0.00471,-123.3,,,,,,,
9973.82,-0.00472,-123.2,,,,,,,
9973.87,-0.00477,-123.2,,,,,,,
9973.92,-0.00482,-123.4,,,,,,,
9973.97,-0.00487,-123.6,,,,,,,
9974.02,-0.00492,-123.7,,,,,,,
9974.08,-0.00497,-123.9,,,,,,,
9974.27,-0.00492,-97.67,,,,,,,
9974.3,-0.00487,-89.99,,,,,,,
9974.3,-0.00487,-89.85,,,,,,,
9974.34,-0.00482,-82.54,,,,,,,
9974.38,-0.00477,-75.72,,,,,,,
9974.42,-0.00472,-68.68,,,,,,,
9974.47,-0.00467,-61.25,,,,,,,
9974.52,-0.00462,-55.53,,,,,,,
9974.57,-0.00457,-50.12,,,,,,,
9974.63,-0.00452,-42.7,,,,,,,
9974.68,-0.00447,-37.24,,,,,,,
9974.73,-0.00442,-32.31,,,,,,,
9974.78,-0.00436,-27.06,,,,,,,
9974.8,-0.00434,-24.88,,,,,,,
9974.83,-0.00431,-21.8,,,,,,,
9974.89,-0.00426,-16.52,,,,,,,
9974.95,-0.00421,-10.43,,,,,,,
9974.99,-0.00416,-6.37,,,,,,,
9975.05,-0.00411,-1.11,,,,,,,
9975.1,-0.00406,3.28,,,,,,,
9975.15,-0.00401,7.99,,,,,,,
9975.2,-0.00396,12.53,,,,,,,
9975.26,-0.00391,16.62,,,,,,,
9975.3,-0.00387,20.15,,,,,,,
9975.32,-0.00386,21.23,,,,,,,
9975.37,-0.00381,25.66,,,,,,,
9975.42,-0.00376,29.89,,,,,,,
9975.48,-0.00371,32.99,,,,,,,
9975.58,-0.00366,36.15,,,,,,,
9975.66,-0.00361,39.51,,,,,,,
9975.72,-0.00356,43.84,,,,,,,
9975.76,-0.00351,49.46,,,,,,,
9975.79,-0.00345,53.9,,,,,,,
9975.8,-0.00343,56.06,,,,,,,
9975.82,-0.0034,57.92,,,,,,,
9975.86,-0.00335,61.12,,,,,,,
9975.91,-0.0033,63.83,,,,,,,
9975.96,-0.00325,66.02,,,,,,,
9976.03,-0.0032,68.15,,,,,,,
9976.09,-0.00315,70.5,,,,,,,
9976.15,-0.0031,72.87,,,,,,,
9976.2,-0.00305,75.54,,,,,,,
9976.25,-0.003,78.15,,,,,,,
9976.3,-0.00295,80.82,,,,,,,
9976.31,-0.00295,81.24,,,,,,,
9976.35,-0.0029,83.98,,,,,,,
9976.39,-0.00285,87.92,,,,,,,
9976.42,-0.0028,91.29,,,,,,,
9976.46,-0.00275,94.62,,,,,,,
9976.49,-0.00269,97.61,,,,,,,
9976.53,-0.00264,100.33,,,,,,,
9976.57,-0.00259,102.58,,,,,,,
9976.6,-0.00254,104.3,,,,,,,
9976.65,-0.00249,105.89,,,,,,,
9976.69,-0.00244,106.6,,,,,,,
9976.74,-0.00239,107.26,,,,,,,
9976.79,-0.00234,108.09,,,,,,,
9976.8,-0.00233,108.25,,,,,,,
9976.84,-0.00229,108.77,,,,,,,
9976.89,-0.00224,109.58,,,,,,,
9976.94,-0.00219,110.55,,,,,,,
9976.99,-0.00214,111.21,,,,,,,
9977.04,-0.00209,111.91,,,,,,,
9977.09,-0.00204,112.45,,,,,,,
9977.14,-0.00199,112.89,,,,,,,
9977.19,-0.00194,113.44,,,,,,,
9977.24,-0.00189,114.05,,,,,,,
9977.29,-0.00184,114.53,,,,,,,
9977.3,-0.00182,114.77,,,,,,,
9977.34,-0.00178,115.17,,,,,,,
9977.39,-0.00173,115.69,,,,,,,
9977.44,-0.00168,115.99,,,,,,,
9977.49,-0.00163,115.98,,,,,,,
9977.54,-0.00158,115.88,,,,,,,
9977.59,-0.00153,115.91,,,,,,,
9977.64,-0.00148,116.2,,,,,,,
9977.69,-0.00143,116.42,,,,,,,
9977.74,-0.00138,116.62,,,,,,,
9977.79,-0.00133,116.84,,,,,,,
9977.8,-0.00133,116.93,,,,,,,
9977.84,-0.00128,117.35,,,,,,,
9977.89,-0.00123,117.59,,,,,,,
9977.95,-0.00118,118.07,,,,,,,
9978.0,-0.00113,118.46,,,,,,,
9978.04,-0.00108,118.81,,,,,,,
9978.09,-0.00103,119.08,,,,,,,
9978.14,-0.00098,119.32,,,,,,,
9978.19,-0.00093,119.87,,,,,,,
9978.24,-0.00088,119.88,,,,,,,
9978.28,-0.00083,120.01,,,,,,,
9978.3,-0.00081,119.87,,,,,,,
9978.33,-0.00078,119.81,,,,,,,
9978.39,-0.00073,119.65,,,,,,,
9978.44,-0.00068,119.59,,,,,,,
9978.49,-0.00063,119.59,,,,,,,
9978.55,-0.00058,119.84,,,,,,,
9978.6,-0.00053,120.18,,,,,,,
9978.65,-0.00048,120.69,,,,,,,
9978.7,-0.00042,121.1,,,,,,,
9978.74,-0.00037,121.46,,,,,,,
9978.79,-0.00032,121.69,,,,,,,
9978.8,-0.00031,121.83,,,,,,,
9978.84,-0.00027,121.87,,,,,,,
9978.89,-0.00022,121.62,,,,,,,
9978.94,-0.00017,121.41,,,,,,,
9979.0,-0.00012,121.35,,,,,,,
9979.04,-7e-05,121.38,,,,,,,
9979.09,-2e-05,121.25,,,,,,,
9979.15,3e-05,121.19,,,,,,,
9979.2,8e-05,121.33,,,,,,,
9979.25,0.00013,121.2,,,,,,,
9979.3,0.00018,121.36,,,,,,,
9979.3,0.00018,121.42,,,,,,,
9979.35,0.00023,121.71,,,,,,,
9979.4,0.00028,121.71,,,,,,,
9979.45,0.00033,121.91,,,,,,,
9979.5,0.00038,122.19,,,,,,,
9979.55,0.00043,122.19,,,,,,,
9979.6,0.00049,122.3,,,,,,,
9979.65,0.00054,122.04,,,,,,,
9979.71,0.00059,122.1,,,,,,,
9979.76,0.00064,122.12,,,,,,,
9979.8,0.00068,122.35,,,,,,,
9979.81,0.00069,122.21,,,,,,,
9979.86,0.00074,122.78,,,,,,,
9979.9,0.00079,123.05,,,,,,,
9979.95,0.00084,122.98,,,,,,,
9980.0,0.00089,122.86,,,,,,,
9980.05,0.00094,122.8,,,,,,,
9980.1,0.00099,122.7,,,,,,,
9980.15,0.00104,122.72,,,,,,,
9980.21,0.00109,122.44,,,,,,,
9980.25,0.00114,122.71,,,,,,,
9980.3,0.00119,122.84,,,,,,,
9980.31,0.00119,122.9,,,,,,,
9980.36,0.00124,123.09,,,,,,,
9980.41,0.00129,123.27,,,,,,,
9980.46,0.00135,123.3,,,,,,,
9980.51,0.0014,123.61,,,,,,,
9980.56,0.00145,123.78,,,,,,,
9980.61,0.0015,123.76,,,,,,,
9980.66,0.00155,123.7,,,,,,,
9980.71,0.0016,123.63,,,,,,,
9980.76,0.00165,123.55,,,,,,,
9980.8,0.00169,123.4,,,,,,,
9980.81,0.0017,123.39,,,,,,,
9980.86,0.00175,123.3,,,,,,,
9980.91,0.0018,123.09,,,,,,,
9980.96,0.00185,122.86,,,,,,,
9981.01,0.0019,123.13,,,,,,,
9981.06,0.00195,122.86,,,,,,,
9981.11,0.002,123.0,,,,,,,
9981.16,0.00205,123.1,,,,,,,
9981.21,0.0021,123.16,,,,,,,
9981.26,0.00215,123.29,,,,,,,
9981.3,0.00219,123.36,,,,,,,
9981.31,0.0022,123.26,,,,,,,
9981.36,0.00225,123.2,,,,,,,
9981.41,0.00231,123.36,,,,,,,
9981.46,0.00236,123.45,,,,,,,
9981.51,0.00241,123.35,,,,,,,
9981.57,0.00246,123.46,,,,,,,
9981.62,0.00251,123.74,,,,,,,
9981.67,0.00256,124.06,,,,,,,
9981.72,0.00261,124.15,,,,,,,
9981.77,0.00266,124.23,,,,,,,
9981.8,0.00269,124.37,,,,,,,
9981.82,0.00271,124.26,,,,,,,
9981.87,0.00276,124.4,,,,,,,
9981.92,0.00281,124.36,,,,,,,
9981.97,0.00286,124.52,,,,,,,
9982.02,0.00291,124.73,,,,,,,
9982.07,0.00296,124.83,,,,,,,
9982.12,0.00301,124.72,,,,,,,
9982.17,0.00306,124.83,,,,,,,
9982.22,0.00312,124.99,,,,,,,
9982.27,0.00317,124.63,,,,,,,
9982.3,0.00319,124.82,,,,,,,
9982.33,0.00322,124.89,,,,,,,
9982.38,0.00327,125.09,,,,,,,
9982.43,0.00332,125.44,,,,,,,
9982.47,0.00337,125.71,,,,,,,
9982.52,0.00342,125.91,,,,,,,
9982.57,0.00347,125.9,,,,,,,
9982.62,0.00352,125.73,,,,,,,
9982.68,0.00357,125.62,,,,,,,
9982.73,0.00362,125.71,,,,,,,
9982.78,0.00367,125.69,,,,,,,
9982.8,0.0037,125.93,,,,,,,
9982.83,0.00372,125.77,,,,,,,
9982.88,0.00377,125.84,,,,,,,
9982.93,0.00382,125.96,,,,,,,
9982.98,0.00387,126.09,,,,,,,
9983.03,0.00392,126.27,,,,,,,
9983.08,0.00398,126.28,,,,,,,
9983.12,0.00403,126.62,,,,,,,
9983.17,0.00408,126.46,,,,,,,
9983.22,0.00413,126.13,,,,,,,
9983.28,0.00418,125.57,,,,,,,
9983.3,0.00421,125.51,,,,,,,
9983.33,0.00423,125.19,,,,,,,
9983.38,0.00428,124.91,,,,,,,
9983.43,0.00433,124.53,,,,,,,
9983.48,0.00438,124.57,,,,,,,
9983.53,0.00443,124.67,,,,,,,
9983.58,0.00448,124.69,,,,,,,
9983.64,0.00453,124.89,,,,,,,
9983.69,0.00458,125.0,,,,,,,
9983.74,0.00463,125.3,,,,,,,
9983.79,0.00469,125.6,,,,,,,
9983.8,0.0047,125.75,,,,,,,
9983.84,0.00474,125.83,,,,,,,
9983.89,0.00479,125.96,,,,,,,
9983.94,0.00484,126.28,,,,,,,
9983.98,0.00489,126.39,,,,,,,
9984.04,0.00494,126.33,,,,,,,
17967.58,0.00497,83.88,,,,,,,
17967.63,0.00502,83.55,,,,,,,
17967.72,0.00497,73.88,,,,,,,
17967.76,0.00492,69.36,,,,,,,
17967.78,0.00487,65.8,,,,,,,
17967.8,0.00482,62.38,,,,,,,
17967.84,0.00477,59.17,,,,,,,
17967.88,0.00472,55.69,,,,,,,
17967.94,0.00467,52.82,,,,,,,
17968.01,0.00462,49.42,,,,,,,
17968.07,0.00457,46.21,,,,,,,
17968.12,0.00452,43.07,,,,,,,
17968.16,0.00447,40.38,,,,,,,
17968.21,0.00442,37.52,,,,,,,
17968.26,0.00437,34.71,,,,,,,
17968.3,0.00433,32.39,,,,,,,
17968.32,0.00431,31.87,,,,,,,
17968.37,0.00426,29.3,,,,,,,
17968.42,0.00421,26.65,,,,,,,
17968.47,0.00416,24.21,,,,,,,
17968.52,0.00411,21.63,,,,,,,
17968.58,0.00406,19.18,,,,,,,
17968.62,0.00401,16.98,,,,,,,
17968.67,0.00396,14.66,,,,,,,
17968.73,0.00391,11.81,,,,,,,
17968.77,0.00386,9.99,,,,,,,
17968.8,0.00384,8.66,,,,,,,
17968.83,0.00381,7.83,,,,,,,
17968.89,0.00376,5.76,,,,,,,
17968.97,0.00371,4.23,,,,,,,
17969.06,0.00365,2.38,,,,,,,
17969.11,0.0036,0.46,,,,,,,
17969.16,0.00355,-1.15,,,,,,,
17969.21,0.0035,-3.26,,,,,,,
17969.27,0.00345,-5.94,,,,,,,
17969.3,0.00342,-7.33,,,,,,,
17969.31,0.0034,-7.4,,,,,,,
17969.36,0.00335,-9.39,,,,,,,
17969.42,0.0033,-11.35,,,,,,,
17969.47,0.00325,-13.65,,,,,,,
17969.49,0.0032,-15.47,,,,,,,
17969.53,0.00315,-17.61,,,,,,,
17969.58,0.0031,-18.63,,,,,,,
17969.65,0.00305,-19.26,,,,,,,
17969.71,0.00299,-20.7,,,,,,,
17969.77,0.00294,-22.45,,,,,,,
17969.8,0.0029,-23.82,,,,,,,
17969.81,0.00289,-24.32,,,,,,,
17969.86,0.00284,-25.8,,,,,,,
17969.9,0.00279,-27.89,,,,,,,
17969.93,0.00274,-29.82,,,,,,,
17969.96,0.00269,-31.76,,,,,,,
17969.99,0.00264,-33.09,,,,,,,
17970.03,0.00259,-34.27,,,,,,,
17970.07,0.00254,-34.93,,,,,,,
17970.13,0.00249,-35.15,,,,,,,
17970.19,0.00244,-35.87,,,,,,,
17970.24,0.00239,-36.7,,,,,,,
17970.3,0.00234,-37.87,,,,,,,
17970.3,0.00233,-38.19,,,,,,,
17970.34,0.00229,-39.13,,,,,,,
17970.39,0.00224,-40.28,,,,,,,
17970.43,0.00219,-41.11,,,,,,,
17970.48,0.00214,-41.9,,,,,,,
17970.54,0.00208,-42.74,,,,,,,
17970.58,0.00203,-43.38,,,,,,,
17970.64,0.00198,-44.28,,,,,,,
17970.69,0.00193,-45.18,,,,,,,
17970.74,0.00188,-46.13,,,,,,,
17970.79,0.00183,-46.71,,,,,,,
17970.8,0.00181,-46.88,,,,,,,
17970.84,0.00178,-47.4,,,,,,,
17970.89,0.00173,-48.01,,,,,,,
17970.94,0.00168,-48.61,,,,,,,
17970.99,0.00163,-49.25,,,,,,,
17971.04,0.00158,-49.87,,,,,,,
17971.09,0.00153,-50.77,,,,,,,
17971.14,0.00148,-51.63,,,,,,,
17971.19,0.00143,-52.21,,,,,,,
17971.25,0.00138,-52.75,,,,,,,
17971.29,0.00133,-53.32,,,,,,,
17971.3,0.00132,-53.48,,,,,,,
17971.34,0.00128,-53.94,,,,,,,
17971.39,0.00122,-54.51,,,,,,,
17971.44,0.00117,-55.02,,,,,,,
17971.5,0.00112,-55.51,,,,,,,
17971.54,0.00107,-55.96,,,,,,,
17971.6,0.00102,-56.46,,,,,,,
17971.65,0.00097,-56.94,,,,,,,
17971.69,0.00092,-57.41,,,,,,,
17971.74,0.00087,-57.67,,,,,,,
17971.79,0.00082,-58.21,,,,,,,
17971.8,0.00081,-58.12,,,,,,,
17971.84,0.00077,-58.47,,,,,,,
17971.9,0.00072,-58.84,,,,,,,
17971.95,0.00067,-59.25,,,,,,,
17972.01,0.00062,-59.6,,,,,,,
17972.05,0.00057,-60.18,,,,,,,
17972.1,0.00052,-60.61,,,,,,,
17972.15,0.00047,-60.75,,,,,,,
17972.2,0.00042,-61.12,,,,,,,
17972.25,0.00037,-61.73,,,,,,,
17972.3,0.00032,-61.88,,,,,,,
17972.3,0.00031,-61.98,,,,,,,
17972.35,0.00027,-62.52,,,,,,,
17972.4,0.00022,-62.62,,,,,,,
17972.44,0.00016,-62.78,,,,,,,
17972.5,0.00011,-62.8,,,,,,,
17972.55,6e-05,-63.04,,,,,,,
17972.6,1e-05,-63.35,,,,,,,
17972.65,-4e-05,-63.62,,,,,,,
17972.7,-9e-05,-64.08,,,,,,,
17972.74,-0.00014,-64.12,,,,,,,
17972.8,-0.00019,-64.06,,,,,,,
17972.8,-0.00019,-64.0,,,,,,,
17972.85,-0.00024,-64.23,,,,,,,
17972.9,-0.00029,-64.32,,,,,,,
17972.96,-0.00034,-64.47,,,,,,,
17973.01,-0.00039,-64.71,,,,,,,
17973.06,-0.00044,-64.97,,,,,,,
17973.11,-0.00049,-65.55,,,,,,,
17973.15,-0.00054,-65.95,,,,,,,
17973.2,-0.00059,-65.97,,,,,,,
17973.25,-0.00064,-66.16,,,,,,,
17973.3,-0.00069,-66.17,,,,,,,
17973.31,-0.00069,-66.3,,,,,,,
17973.35,-0.00074,-66.09,,,,,,,
17973.4,-0.00079,-66.2,,,,,,,
17973.45,-0.00084,-66.34,,,,,,,
17973.51,-0.00089,-66.4,,,,,,,
17973.56,-0.00095,-66.62,,,,,,,
17973.6,-0.001,-66.89,,,,,,,
17973.66,-0.00105,-66.94,,,,,,,
17973.71,-0.0011,-66.87,,,,,,,
17973.76,-0.00115,-67.11,,,,,,,
17973.8,-0.00119,-67.15,,,,,,,
17973.81,-0.0012,-67.04,,,,,,,
17973.86,-0.00125,-67.31,,,,,,,
17973.91,-0.0013,-67.24,,,,,,,
17973.96,-0.00135,-67.26,,,,,,,
17974.01,-0.0014,-67.38,,,,,,,
17974.06,-0.00145,-67.59,,,,,,,
17974.12,-0.0015,-67.83,,,,,,,
17974.17,-0.00155,-68.14,,,,,,,
17974.22,-0.0016,-68.67,,,,,,,
17974.27,-0.00165,-69.01,,,,,,,
17974.3,-0.00169,-69.2,,,,,,,
17974.31,-0.0017,-69.17,,,,,,,
17974.36,-0.00175,-69.21,,,,,,,
17974.42,-0.0018,-69.26,,,,,,,
17974.46,-0.00185,-69.34,,,,,,,
17974.52,-0.0019,-69.4,,,,,,,
17974.56,-0.00195,-69.51,,,,,,,
17974.62,-0.00201,-69.68,,,,,,,
17974.67,-0.00206,-69.78,,,,,,,
17974.72,-0.00211,-70.05,,,,,,,
17974.77,-0.00216,-70.07,,,,,,,
17974.8,-0.00219,-70.29,,,,,,,
17974.82,-0.00221,-70.3,,,,,,,
17974.87,-0.00226,-70.37,,,,,,,
17974.92,-0.00231,-70.66,,,,,,,
17974.96,-0.00236,-70.63,,,,,,,
17975.02,-0.00241,-70.39,,,,,,,
17975.07,-0.00246,-70.47,,,,,,,
17975.13,-0.00251,-70.46,,,,,,,
17975.17,-0.00256,-70.97,,,,,,,
17975.22,-0.00261,-71.34,,,,,,,
17975.27,-0.00266,-71.35,,,,,,,
17975.3,-0.0027,-71.57,,,,,,,
17975.31,-0.00271,-71.45,,,,,,,
17975.37,-0.00276,-71.19,,,,,,,
17975.43,-0.00281,-70.89,,,,,,,
17975.48,-0.00286,-70.95,,,,,,,
17975.53,-0.00291,-71.14,,,,,,,
17975.58,-0.00296,-71.45,,,,,,,
17975.62,-0.00301,-71.89,,,,,,,
17975.68,-0.00307,-71.88,,,,,,,
17975.72,-0.00312,-72.08,,,,,,,
17975.77,-0.00317,-72.21,,,,,,,
17975.8,-0.00319,-72.34,,,,,,,
17975.82,-0.00322,-72.33,,,,,,,
17975.88,-0.00327,-72.37,,,,,,,
17975.93,-0.00332,-72.67,,,,,,,
17975.98,-0.00337,-72.75,,,,,,,
17976.02,-0.00342,-72.78,,,,,,,
17976.07,-0.00347,-73.07,,,,,,,
17976.12,-0.00352,-73.0,,,,,,,
17976.17,-0.00357,-72.67,,,,,,,
17976.23,-0.00362,-72.65,,,,,,,
17976.29,-0.00367,-72.51,,,,,,,
17976.3,-0.00369,-72.73,,,,,,,
17976.34,-0.00372,-72.8,,,,,,,
17976.38,-0.00377,-73.17,,,,,,,
17976.43,-0.00382,-73.31,,,,,,,
17976.47,-0.00387,-73.55,,,,,,,
17976.53,-0.00392,-73.63,,,,,,,
17976.58,-0.00397,-73.68,,,,,,,
17976.63,-0.00402,-73.64,,,,,,,
17976.69,-0.00408,-73.55,,,,,,,
17976.74,-0.00413,-73.92,,,,,,,
17976.79,-0.00418,-74.25,,,,,,,
17976.8,-0.00419,-74.47,,,,,,,
17976.84,-0.00423,-74.61,,,,,,,
17976.9,-0.00428,-75.41,,,,,,,
17976.94,-0.00433,-76.29,,,,,,,
17977.0,-0.00438,-76.99,,,,,,,
17977.05,-0.00443,-77.71,,,,,,,
17977.1,-0.00448,-78.59,,,,,,,
17977.16,-0.00453,-79.68,,,,,,,
17977.22,-0.00458,-80.88,,,,,,,
17977.27,-0.00463,-82.56,,,,,,,
17977.3,-0.00467,-83.65,,,,,,,
17977.32,-0.00468,-84.12,,,,,,,
17977.37,-0.00474,-85.79,,,,,,,
17977.43,-0.00479,-88.13,,,,,,,
17977.48,-0.00484,-89.64,,,,,,,
17977.53,-0.00489,-91.91,,,,,,,
17977.58,-0.00494,-93.67,,,,,,,
17977.65,-0.00499,-94.85,,,,,,,
17977.76,-0.00494,-83.0,,,,,,,
17977.8,-0.00489,-75.38,,,,,,,
17977.81,-0.00489,-74.77,,,,,,,
17977.84,-0.00483,-68.38,,,,,,,
17977.88,-0.00478,-61.64,,,,,,,
17977.93,-0.00473,-55.58,,,,,,,
17977.97,-0.00468,-50.14,,,,,,,
17978.01,-0.00463,-45.44,,,,,,,
17978.06,-0.00458,-40.33,,,,,,,
17978.12,-0.00453,-35.31,,,,,,,
17978.17,-0.00448,-31.02,,,,,,,
17978.22,-0.00443,-26.74,,,,,,,
17978.27,-0.00438,-23.07,,,,,,,
17978.3,-0.00433,-20.43,,,,,,,
17978.31,-0.00433,-19.89,,,,,,,
17978.35,-0.00428,-17.25,,,,,,,
17978.41,-0.00423,-14.33,,,,,,,
17978.46,-0.00418,-11.65,,,,,,,
17978.51,-0.00413,-8.88,,,,,,,
17978.56,-0.00408,-6.22,,,,,,,
17978.61,-0.00403,-3.57,,,,,,,
17978.66,-0.00397,-1.18,,,,,,,
17978.71,-0.00392,1.54,,,,,,,
17978.76,-0.00387,3.76,,,,,,,
17978.8,-0.00384,5.73,,,,,,,
17978.82,-0.00382,6.55,,,,,,,
17978.87,-0.00377,8.9,,,,,,,
17978.93,-0.00372,11.53,,,,,,,
17978.97,-0.00367,13.45,,,,,,,
17979.02,-0.00362,15.68,,,,,,,
17979.08,-0.00357,17.65,,,,,,,
17979.13,-0.00352,19.95,,,,,,,
17979.18,-0.00347,21.61,,,,,,,
17979.23,-0.00342,23.53,,,,,,,
17979.28,-0.00337,25.35,,,,,,,
17979.3,-0.00334,25.91,,,,,,,
17979.34,-0.00331,26.71,,,,,,,
17979.41,-0.00326,27.72,,,,,,,
17979.49,-0.00321,28.98,,,,,,,
17979.55,-0.00316,30.78,,,,,,,
17979.6,-0.00311,32.31,,,,,,,
17979.66,-0.00306,34.16,,,,,,,
17979.7,-0.00301,36.1,,,,,,,
17979.74,-0.00296,38.4,,,,,,,
17979.76,-0.00291,40.61,,,,,,,
17979.79,-0.00286,42.33,,,,,,,
17979.8,-0.00284,42.78,,,,,,,
17979.83,-0.00281,43.4,,,,,,,
17979.89,-0.00276,43.36,,,,,,,
17979.97,-0.00271,43.61,,,,,,,
17980.03,-0.00266,45.06,,,,,,,
17980.08,-0.00261,46.46,,,,,,,
17980.13,-0.00256,47.75,,,,,,,
17980.18,-0.0025,48.89,,,,,,,
17980.23,-0.00245,49.84,,,,,,,
17980.28,-0.0024,50.8,,,,,,,
17980.3,-0.00238,51.29,,,,,,,
17980.33,-0.00235,51.67,,,,,,,
17980.38,-0.0023,52.47,,,,,,,
17980.44,-0.00225,53.15,,,,,,,
17980.49,-0.0022,53.91,,,,,,,
17980.54,-0.00215,54.86,,,,,,,
17980.58,-0.0021,55.84,,,,,,,
17980.63,-0.00205,57.18,,,,,,,
17980.67,-0.002,58.43,,,,,,,
17980.71,-0.00195,59.79,,,,,,,
17980.74,-0.0019,60.85,,,,,,,
17980.78,-0.00185,61.67,,,,,,,
17980.8,-0.00182,62.08,,,,,,,
17980.83,-0.0018,62.31,,,,,,,
17980.88,-0.00175,62.18,,,,,,,
17980.93,-0.0017,62.25,,,,,,,
17980.98,-0.00164,62.7,,,,,,,
17981.03,-0.00159,63.2,,,,,,,
17981.08,-0.00154,63.7,,,,,,,
17981.13,-0.00149,64.3,,,,,,,
17981.17,-0.00144,64.96,,,,,,,
17981.22,-0.00139,65.4,,,,,,,
17981.28,-0.00134,65.44,,,,,,,
17981.3,-0.00132,65.46,,,,,,,
17981.33,-0.00129,65.74,,,,,,,
17981.38,-0.00124,66.05,,,,,,,
17981.43,-0.00119,66.42,,,,,,,
17981.48,-0.00114,67.05,,,,,,,
17981.53,-0.00109,67.44,,,,,,,
17981.58,-0.00104,67.74,,,,,,,
17981.63,-0.00099,68.0,,,,,,,
17981.69,-0.00094,68.15,,,,,,,
17981.74,-0.00089,68.48,,,,,,,
17981.79,-0.00084,68.99,,,,,,,
17981.8,-0.00082,69.05,,,,,,,
17981.84,-0.00079,69.25,,,,,,,
17981.88,-0.00074,69.89,,,,,,,
17981.93,-0.00069,70.21,,,,,,,
17981.98,-0.00063,70.6,,,,,,,
17982.03,-0.00058,70.92,,,,,,,
17982.08,-0.00053,71.0,,,,,,,
17982.13,-0.00048,71.24,,,,,,,
17982.18,-0.00043,71.46,,,,,,,
17982.23,-0.00038,71.52,,,,,,,
17982.29,-0.00033,71.48,,,,,,,
17982.3,-0.00031,71.52,,,,,,,
17982.34,-0.00028,71.65,,,,,,,
17982.38,-0.00023,71.82,,,,,,,
17982.44,-0.00018,72.17,,,,,,,
17982.49,-0.00013,72.27,,,,,,,
17982.54,-8e-05,72.76,,,,,,,
17982.59,-3e-05,73.04,,,,,,,
17982.64,2e-05,73.23,,,,,,,
17982.69,7e-05,73.49,,,,,,,
17982.74,0.00012,73.68,,,,,,,
17982.79,0.00017,73.91,,,,,,,
17982.8,0.00018,73.92,,,,,,,
17982.84,0.00022,74.26,,,,,,,
17982.89,0.00028,74.39,,,,,,,
17982.94,0.00033,74.63,,,,,,,
17982.99,0.00038,74.74,,,,,,,
17983.04,0.00043,74.76,,,,,,,
17983.1,0.00048,74.92,,,,,,,
17983.15,0.00053,75.02,,,,,,,
17983.2,0.00058,75.01,,,,,,,
17983.25,0.00063,75.37,,,,,,,
17983.3,0.00068,75.53,,,,,,,
17983.3,0.00069,75.61,,,,,,,
17983.34,0.00073,75.83,,,,,,,
17983.39,0.00078,75.92,,,,,,,
17983.44,0.00083,75.74,,,,,,,
17983.49,0.00088,75.55,,,,,,,
17983.55,0.00093,75.71,,,,,,,
17983.6,0.00098,75.62,,,,,,,
17983.65,0.00103,75.91,,,,,,,
17983.7,0.00108,76.0,,,,,,,
17983.76,0.00113,76.31,,,,,,,
17983.8,0.00118,76.49,,,,,,,
17983.85,0.00123,76.71,,,,,,,
17983.9,0.00128,76.96,,,,,,,
17983.95,0.00133,77.15,,,,,,,
17984.01,0.00139,77.16,,,,,,,
17984.06,0.00144,77.35,,,,,,,
17984.11,0.00149,77.71,,,,,,,
17984.16,0.00154,77.86,,,,,,,
17984.2,0.00159,78.2,,,,,,,
17984.25,0.00164,78.11,,,,,,,
17984.3,0.00169,78.11,,,,,,,
17984.3,0.0017,77.93,,,,,,,
17984.35,0.00174,77.56,,,,,,,
17984.41,0.00179,77.5,,,,,,,
17984.45,0.00184,77.64,,,,,,,
17984.5,0.00189,77.66,,,,,,,
17984.55,0.00194,77.91,,,,,,,
17984.6,0.00199,77.74,,,,,,,
17984.66,0.00204,77.41,,,,,,,
17984.71,0.00209,77.35,,,,,,,
17984.77,0.00214,77.56,,,,,,,
17984.8,0.00218,77.83,,,,,,,
17984.81,0.00219,77.96,,,,,,,
17984.86,0.00225,78.21,,,,,,,
17984.9,0.0023,78.71,,,,,,,
17984.95,0.00235,78.77,,,,,,,
17985.01,0.0024,78.41,,,,,,,
17985.06,0.00245,78.09,,,,,,,
17985.11,0.0025,78.17,,,,,,,
17985.17,0.00255,78.26,,,,,,,
17985.21,0.0026,78.6,,,,,,,
17985.26,0.00265,78.86,,,,,,,
17985.3,0.00269,79.1,,,,,,,
17985.31,0.0027,78.99,,,,,,,
17985.36,0.00275,79.04,,,,,,,
17985.41,0.0028,79.02,,,,,,,
17985.46,0.00285,79.07,,,,,,,
17985.52,0.0029,79.08,,,,,,,
17985.57,0.00295,79.1,,,,,,,
17985.61,0.003,79.41,,,,,,,
17985.66,0.00305,79.51,,,,,,,
17985.71,0.0031,79.51,,,,,,,
17985.77,0.00315,79.47,,,,,,,
17985.8,0.00319,79.75,,,,,,,
17985.82,0.0032,79.86,,,,,,,
17985.88,0.00325,79.98,,,,,,,
17985.92,0.00331,80.49,,,,,,,
17985.96,0.00336,80.84,,,,,,,
17986.01,0.00341,80.87,,,,,,,
17986.06,0.00346,80.66,,,,,,,
17986.12,0.00351,80.6,,,,,,,
17986.17,0.00356,80.33,,,,,,,
17986.23,0.00361,80.79,,,,,,,
17986.27,0.00366,81.23,,,,,,,
17986.3,0.00369,81.76,,,,,,,
17986.32,0.00371,81.81,,,,,,,
17986.36,0.00376,81.92,,,,,,,
17986.41,0.00381,82.0,,,,,,,
17986.46,0.00386,81.87,,,,,,,
17986.52,0.00391,81.62,,,,,,,
17986.57,0.00396,81.53,,,,,,,
17986.62,0.00401,81.57,,,,,,,
17986.67,0.00406,81.71,,,,,,,
17986.73,0.00411,81.69,,,,,,,
17986.77,0.00416,81.78,,,,,,,
17986.8,0.0042,82.03,,,,,,,
17986.83,0.00422,81.84,,,,,,,
17986.88,0.00427,81.9,,,,,,,
17986.93,0.00432,82.01,,,,,,,
17986.98,0.00437,82.26,,,,,,,
17987.02,0.00442,82.38,,,,,,,
17987.08,0.00447,82.58,,,,,,,
17987.13,0.00452,82.62,,,,,,,
17987.18,0.00457,82.41,,,,,,,
17987.24,0.00462,82.7,,,,,,,
17987.28,0.00467,82.97,,,,,,,
17987.3,0.00469,83.08,,,,,,,
17987.33,0.00472,82.96,,,,,,,
17987.38,0.00477,83.26,,,,,,,
17987.43,0.00482,83.43,,,,,,,
17987.48,0.00487,83.8,,,,,,,
17987.53,0.00492,83.82,,,,,,,
